Theta [deg],dB(GainTheta) [] - Freq='0.6GHz' L3='5mm' Ls='1.63mm' Phi='0deg',dB(GainTheta) [] - Freq='0.6GHz' L3='5mm' Ls='1.63mm' Phi='90.0000000000002deg'
0,-0.04,-25.12
0.1,-0.06,-25.27
0.2,-0.06,-25.27
0.3,-0.06,-25.27
0.4,-0.06,-25.31
0.5,-0.06,-25.31
0.6,-0.06,-25.31
0.7,-0.06,-25.31
0.8,-0.06,-25.31
0.9,-0.06,-25.31
1,-0.06,-25.31
1.1,-0.06,-25.31
1.2,-0.02,-25.31
1.3,-0.02,-25.31
1.4,-0.02,-25.31
1.5,-0.02,-25.31
1.6,-0.02,-25.31
1.7,-0.02,-25.31
1.8,-0.02,-25.31
1.9,-0.02,-25.31
2,-0.02,-25.31
2.1,-0.02,-25.31
2.2,-0.02,-25.31
2.3,-0.02,-25.31
2.4,-0.02,-25.31
2.5,-0.19,-25.56
2.6,-0.19,-25.56
2.7,-0.19,-25.56
2.8,-0.19,-25.56
2.9,-0.19,-25.56
3,-0.19,-25.56
3.1,-0.19,-25.62
3.2,-0.19,-25.62
3.3,-0.19,-25.62
3.4,-0.19,-25.62
3.5,-0.19,-25.62
3.6,-0.22,-25.62
3.7,-0.22,-25.62
3.8,-0.22,-25.62
3.9,-0.22,-25.62
4,-0.22,-25.88
4.1,-0.22,-25.88
4.2,-0.22,-25.88
4.3,-0.22,-25.88
4.4,-0.22,-25.88
4.5,-0.22,-25.88
4.6,-0.25,-25.88
4.7,-0.25,-25.88
4.8,-0.25,-25.88
4.9,-0.25,-26.05
5,-0.25,-26.05
5.1,-0.25,-26.05
5.2,-0.25,-26.05
5.3,-0.25,-26.05
5.4,-0.25,-26.05
5.5,-0.25,-26.05
5.6,-0.25,-26.05
5.7,-0.41,-26.05
5.8,-0.41,-26.05
5.9,-0.41,-26.11
6,-0.41,-26.11
6.1,-0.41,-26.11
6.2,-0.41,-26.11
6.3,-0.41,-26.11
6.4,-0.41,-26.11
6.5,-0.41,-26.11
6.6,-0.41,-26.11
6.7,-0.44,-26.11
6.8,-0.44,-26.11
6.9,-0.44,-26.11
7,-0.44,-26.11
7.1,-0.44,-26.11
7.2,-0.44,-26.11
7.3,-0.44,-26.11
7.4,-0.44,-26.11
7.5,-0.44,-26.11
7.6,-0.44,-26.11
7.7,-0.48,-26.11
7.8,-0.48,-26.11
7.9,-0.48,-26.53
8,-0.48,-26.53
8.1,-0.48,-26.53
8.2,-0.48,-26.53
8.3,-0.48,-26.53
8.4,-0.48,-26.53
8.5,-0.48,-26.53
8.6,-0.72,-26.53
8.7,-0.72,-26.82
8.8,-0.72,-26.82
8.9,-0.72,-26.82
9,-0.72,-26.82
9.1,-0.72,-26.82
9.2,-0.72,-26.82
9.3,-0.72,-26.82
9.4,-0.72,-26.82
9.5,-0.72,-26.82
9.6,-0.72,-27.04
9.7,-0.72,-27.04
9.8,-0.72,-27.04
9.9,-0.72,-27.04
10,-0.72,-27.04
10.1,-0.72,-27.04
10.2,-0.72,-27.04
10.3,-0.72,-27.04
10.4,-0.72,-27.24
10.5,-0.72,-27.24
10.6,-0.72,-27.24
10.7,-0.77,-27.24
10.8,-0.77,-27.24
10.9,-0.77,-27.24
11,-0.77,-27.24
11.1,-0.77,-27.24
11.2,-0.77,-27.24
11.3,-0.77,-27.24
11.4,-0.77,-27.56
11.5,-0.77,-27.56
11.6,-0.77,-27.56
11.7,-0.77,-27.56
11.8,-0.84,-27.56
11.9,-0.84,-27.56
12,-0.84,-27.56
12.1,-0.84,-27.56
12.2,-0.84,-27.56
12.3,-0.84,-27.8
12.4,-0.84,-27.8
12.5,-0.84,-27.8
12.6,-0.84,-27.8
12.7,-0.84,-27.8
12.8,-1.03,-27.8
12.9,-1.03,-27.8
13,-1.03,-27.8
13.1,-1.03,-27.8
13.2,-1.03,-28.05
13.3,-1.03,-28.05
13.4,-1.03,-28.05
13.5,-1.03,-28.05
13.6,-1.03,-28.05
13.7,-1.03,-28.05
13.8,-1.09,-28.05
13.9,-1.09,-28.05
14,-1.09,-28.35
14.1,-1.09,-28.35
14.2,-1.09,-28.35
14.3,-1.09,-28.35
14.4,-1.09,-28.35
14.5,-1.09,-28.35
14.6,-1.09,-28.35
14.7,-1.09,-28.35
14.8,-1.32,-28.35
14.9,-1.32,-28.35
15,-1.32,-28.35
15.1,-1.32,-28.35
15.2,-1.32,-28.35
15.3,-1.32,-28.55
15.4,-1.32,-28.55
15.5,-1.32,-28.55
15.6,-1.32,-28.55
15.7,-1.32,-28.55
15.8,-1.38,-28.55
15.9,-1.38,-28.55
16,-1.38,-28.55
16.1,-1.38,-28.94
16.2,-1.38,-28.94
16.3,-1.38,-28.94
16.4,-1.38,-28.94
16.5,-1.38,-28.94
16.6,-1.38,-28.94
16.7,-1.38,-28.94
16.8,-1.38,-28.94
16.9,-1.58,-28.94
17,-1.58,-29.13
17.1,-1.58,-29.13
17.2,-1.58,-29.13
17.3,-1.58,-29.13
17.4,-1.58,-29.13
17.5,-1.58,-29.13
17.6,-1.58,-29.13
17.7,-1.58,-29.13
17.8,-1.62,-29.13
17.9,-1.62,-29.22
18,-1.62,-29.22
18.1,-1.62,-29.22
18.2,-1.62,-29.22
18.3,-1.62,-29.22
18.4,-1.62,-29.22
18.5,-1.62,-29.22
18.6,-1.62,-29.22
18.7,-1.62,-29.22
18.8,-1.62,-29.22
18.9,-1.62,-29.22
19,-1.84,-29.22
19.1,-1.84,-29.22
19.2,-1.84,-29.22
19.3,-1.84,-29.22
19.4,-1.84,-29.22
19.5,-1.84,-29.22
19.6,-1.84,-29.22
19.7,-1.84,-29.22
19.8,-1.84,-29.22
19.9,-2.06,-29.78
20,-2.06,-29.78
20.1,-2.06,-29.78
20.2,-2.06,-29.78
20.3,-2.06,-29.78
20.4,-2.06,-29.78
20.5,-2.06,-29.78
20.6,-2.06,-29.78
20.7,-2.06,-30.1
20.8,-2.06,-30.1
20.9,-2.06,-30.1
21,-2.06,-30.1
21.1,-2.13,-30.1
21.2,-2.13,-30.1
21.3,-2.13,-30.1
21.4,-2.13,-30.1
21.5,-2.13,-30.1
21.6,-2.13,-30.1
21.7,-2.13,-30.1
21.8,-2.13,-30.52
21.9,-2.13,-30.52
22,-2.13,-30.52
22.1,-2.13,-30.52
22.2,-2.13,-30.52
22.3,-2.13,-30.52
22.4,-2.33,-30.52
22.5,-2.33,-30.52
22.6,-2.33,-30.52
22.7,-2.33,-30.52
22.8,-2.33,-30.91
22.9,-2.33,-30.91
23,-2.33,-30.91
23.1,-2.33,-30.91
23.2,-2.33,-30.91
23.3,-2.52,-30.91
23.4,-2.52,-30.91
23.5,-2.52,-30.91
23.6,-2.52,-30.91
23.7,-2.52,-31.38
23.8,-2.52,-31.38
23.9,-2.52,-31.38
24,-2.52,-31.38
24.1,-2.52,-31.38
24.2,-2.52,-31.38
24.3,-2.52,-31.38
24.4,-2.52,-31.38
24.5,-2.52,-31.38
24.6,-2.7,-31.55
24.7,-2.7,-31.55
24.8,-2.7,-31.55
24.9,-2.7,-31.55
25,-2.7,-31.55
25.1,-2.7,-31.55
25.2,-2.7,-31.55
25.3,-2.7,-31.55
25.4,-2.7,-31.55
25.5,-2.7,-32.16
25.6,-2.7,-32.16
25.7,-2.7,-32.16
25.8,-3,-32.16
25.9,-3,-32.16
26,-3,-32.16
26.1,-3,-32.16
26.2,-3,-32.16
26.3,-3,-32.41
26.4,-3,-32.41
26.5,-3,-32.41
26.6,-3,-32.41
26.7,-3.08,-32.41
26.8,-3.08,-32.41
26.9,-3.08,-32.41
27,-3.08,-32.41
27.1,-3.08,-32.41
27.2,-3.08,-32.68
27.3,-3.08,-32.68
27.4,-3.08,-32.68
27.5,-3.08,-32.68
27.6,-3.08,-32.68
27.7,-3.08,-32.68
27.8,-3.08,-32.68
27.9,-3.38,-32.68
28,-3.38,-32.68
28.1,-3.38,-32.68
28.2,-3.38,-32.68
28.3,-3.38,-32.68
28.4,-3.38,-32.68
28.5,-3.38,-32.68
28.6,-3.38,-32.68
28.7,-3.38,-32.68
28.8,-3.38,-32.68
28.9,-3.63,-32.68
29,-3.63,-33.23
29.1,-3.63,-33.23
29.2,-3.63,-33.23
29.3,-3.63,-33.23
29.4,-3.63,-33.23
29.5,-3.63,-33.23
29.6,-3.63,-33.23
29.7,-3.63,-33.23
29.8,-3.63,-33.23
29.9,-3.86,-33.65
30,-3.86,-33.65
30.1,-3.86,-33.65
30.2,-3.86,-33.65
30.3,-3.86,-33.65
30.4,-3.86,-33.65
30.5,-3.86,-33.65
30.6,-3.86,-33.65
30.7,-3.86,-33.65
30.8,-3.86,-34.19
30.9,-4.09,-34.19
31,-4.09,-34.19
31.1,-4.09,-34.19
31.2,-4.09,-34.19
31.3,-4.09,-34.19
31.4,-4.09,-34.19
31.5,-4.09,-34.19
31.6,-4.09,-34.19
31.7,-4.09,-34.58
31.8,-4.09,-34.58
31.9,-4.26,-34.58
32,-4.26,-34.58
32.1,-4.26,-34.58
32.2,-4.26,-34.58
32.3,-4.26,-34.58
32.4,-4.26,-34.58
32.5,-4.26,-34.58
32.6,-4.26,-34.58
32.7,-4.26,-34.58
32.8,-4.69,-34.58
32.9,-4.69,-34.96
33,-4.69,-34.96
33.1,-4.69,-34.96
33.2,-4.69,-34.96
33.3,-4.69,-34.96
33.4,-4.69,-34.96
33.5,-4.69,-34.96
33.6,-4.69,-34.96
33.7,-4.69,-34.96
33.8,-4.69,-35.38
33.9,-4.69,-35.38
34,-4.69,-35.38
34.1,-4.69,-35.38
34.2,-4.69,-35.38
34.3,-4.69,-35.38
34.4,-4.69,-35.38
34.5,-4.69,-35.38
34.6,-4.69,-35.38
34.7,-4.69,-35.89
34.8,-4.69,-35.89
34.9,-4.93,-35.89
35,-4.93,-35.89
35.1,-4.93,-35.89
35.2,-4.93,-35.89
35.3,-4.93,-35.89
35.4,-4.93,-35.89
35.5,-4.93,-35.89
35.6,-4.93,-35.89
35.7,-4.93,-35.89
35.8,-4.93,-35.89
35.9,-4.93,-35.89
36,-5.18,-35.89
36.1,-5.18,-35.89
36.2,-5.18,-35.89
36.3,-5.18,-35.89
36.4,-5.18,-35.89
36.5,-5.18,-36.49
36.6,-5.18,-36.49
36.7,-5.18,-36.49
36.8,-5.18,-36.49
36.9,-5.18,-36.75
37,-5.37,-36.75
37.1,-5.37,-36.75
37.2,-5.37,-36.75
37.3,-5.37,-36.75
37.4,-5.37,-36.75
37.5,-5.37,-36.75
37.6,-5.37,-36.75
37.7,-5.69,-36.75
37.8,-5.69,-36.75
37.9,-5.69,-36.99
38,-5.69,-36.99
38.1,-5.69,-36.99
38.2,-5.69,-36.99
38.3,-5.69,-36.99
38.4,-5.69,-36.99
38.5,-5.69,-36.99
38.6,-5.69,-36.99
38.7,-5.69,-36.99
38.8,-5.69,-36.99
38.9,-5.69,-36.99
39,-5.69,-37.64
39.1,-5.69,-37.64
39.2,-5.69,-37.64
39.3,-5.69,-37.64
39.4,-5.69,-37.64
39.5,-5.69,-37.64
39.6,-5.69,-37.64
39.7,-5.69,-37.64
39.8,-6.02,-37.64
39.9,-6.02,-37.64
40,-6.02,-38.33
40.1,-6.02,-38.33
40.2,-6.02,-38.33
40.3,-6.02,-38.33
40.4,-6.02,-38.33
40.5,-6.02,-38.33
40.6,-6.02,-38.33
40.7,-6.26,-38.33
40.8,-6.26,-38.33
40.9,-6.26,-38.33
41,-6.26,-38.52
41.1,-6.26,-38.52
41.2,-6.26,-38.52
41.3,-6.26,-38.52
41.4,-6.26,-38.52
41.5,-6.26,-38.52
41.6,-6.26,-38.52
41.7,-6.26,-38.52
41.8,-6.26,-38.52
41.9,-6.41,-38.83
42,-6.41,-38.83
42.1,-6.41,-38.83
42.2,-6.41,-38.83
42.3,-6.41,-38.83
42.4,-6.41,-38.83
42.5,-6.41,-38.83
42.6,-6.41,-38.83
42.7,-6.41,-38.83
42.8,-6.63,-38.83
42.9,-6.63,-38.83
43,-6.63,-39.46
43.1,-6.63,-39.46
43.2,-6.63,-39.46
43.3,-6.63,-39.46
43.4,-6.63,-39.46
43.5,-6.63,-39.46
43.6,-6.63,-39.46
43.7,-6.63,-39.46
43.8,-6.63,-39.46
43.9,-6.63,-39.46
44,-7.02,-39.87
44.1,-7.02,-39.87
44.2,-7.02,-39.87
44.3,-7.02,-39.87
44.4,-7.02,-39.87
44.5,-7.02,-39.87
44.6,-7.02,-39.87
44.7,-7.02,-39.87
44.8,-7.02,-39.87
44.9,-7.02,-39.85
45,-7.32,-39.85
45.1,-7.32,-39.85
45.2,-7.32,-39.85
45.3,-7.32,-39.85
45.4,-7.32,-39.85
45.5,-7.32,-39.85
45.6,-7.32,-39.85
45.7,-7.32,-39.85
45.8,-7.32,-39.85
45.9,-7.32,-39.85
46,-7.52,-40.3
46.1,-7.52,-40.3
46.2,-7.52,-40.3
46.3,-7.52,-40.3
46.4,-7.52,-40.3
46.5,-7.52,-40.3
46.6,-7.52,-40.3
46.7,-7.52,-40.3
46.8,-7.52,-40.3
46.9,-7.52,-40.3
47,-7.79,-40.52
47.1,-7.79,-40.52
47.2,-7.79,-40.52
47.3,-7.79,-40.52
47.4,-7.79,-40.52
47.5,-7.79,-40.52
47.6,-7.79,-40.52
47.7,-7.79,-40.52
47.8,-7.79,-40.52
47.9,-7.79,-40.58
48,-8,-40.58
48.1,-8,-40.58
48.2,-8,-40.58
48.3,-8,-40.58
48.4,-8,-40.58
48.5,-8,-40.58
48.6,-8,-40.58
48.7,-8,-40.58
48.8,-8,-40.38
48.9,-8,-40.38
49,-8.25,-40.38
49.1,-8.25,-40.38
49.2,-8.25,-40.38
49.3,-8.25,-40.38
49.4,-8.25,-40.38
49.5,-8.25,-40.38
49.6,-8.25,-40.38
49.7,-8.25,-40.38
49.8,-8.25,-40.38
49.9,-8.25,-40.38
50,-8.25,-41.38
50.1,-8.57,-41.38
50.2,-8.57,-41.38
50.3,-8.57,-41.38
50.4,-8.57,-41.38
50.5,-8.57,-41.38
50.6,-8.57,-41.38
50.7,-8.57,-41.38
50.8,-8.57,-41.38
50.9,-8.57,-41.71
51,-8.86,-41.71
51.1,-8.86,-41.71
51.2,-8.86,-41.71
51.3,-8.86,-41.71
51.4,-8.86,-41.71
51.5,-8.86,-41.71
51.6,-8.86,-41.71
51.7,-8.86,-41.71
51.8,-8.86,-41.44
51.9,-8.86,-41.44
52,-8.86,-41.44
52.1,-8.86,-41.44
52.2,-9.12,-41.44
52.3,-9.12,-41.44
52.4,-9.12,-41.44
52.5,-9.12,-41.44
52.6,-9.12,-41.44
52.7,-9.12,-41.19
52.8,-9.12,-41.19
52.9,-9.12,-41.19
53,-9.12,-41.19
53.1,-9.39,-41.19
53.2,-9.39,-41.19
53.3,-9.39,-41.19
53.4,-9.39,-41.19
53.5,-9.39,-41.19
53.6,-9.39,-41.55
53.7,-9.39,-41.55
53.8,-9.39,-41.55
53.9,-9.39,-41.55
54,-9.39,-41.55
54.1,-9.39,-41.55
54.2,-9.39,-41.55
54.3,-9.66,-41.55
54.4,-9.66,-41.55
54.5,-9.66,-41.55
54.6,-9.66,-41.55
54.7,-9.66,-41.55
54.8,-9.66,-41.54
54.9,-9.66,-41.54
55,-9.66,-41.54
55.1,-9.66,-41.54
55.2,-9.66,-41.54
55.3,-9.66,-41.54
55.4,-9.66,-41.54
55.5,-9.91,-41.54
55.6,-9.91,-41.54
55.7,-9.91,-41.88
55.8,-9.91,-41.88
55.9,-9.91,-41.88
56,-9.91,-41.88
56.1,-9.91,-41.88
56.2,-9.91,-41.88
56.3,-9.91,-41.88
56.4,-9.91,-41.88
56.5,-10.19,-41.88
56.6,-10.19,-42.02
56.7,-10.19,-42.02
56.8,-10.19,-42.02
56.9,-10.19,-42.02
57,-10.19,-42.02
57.1,-10.19,-42.02
57.2,-10.19,-42.02
57.3,-10.19,-42.02
57.4,-10.19,-41.38
57.5,-10.19,-41.38
57.6,-10.19,-41.38
57.7,-10.45,-41.38
57.8,-10.45,-41.38
57.9,-10.45,-41.38
58,-10.45,-41.38
58.1,-10.45,-41.38
58.2,-10.95,-41.38
58.3,-10.95,-42.27
58.4,-10.95,-42.27
58.5,-10.95,-42.27
58.6,-10.95,-42.27
58.7,-10.95,-42.27
58.8,-10.95,-42.27
58.9,-10.95,-42.27
59,-10.95,-42.27
59.1,-10.95,-42.27
59.2,-10.95,-42.27
59.3,-10.95,-42.27
59.4,-10.95,-42.27
59.5,-10.95,-42.52
59.6,-10.95,-42.52
59.7,-10.95,-42.52
59.8,-10.95,-42.52
59.9,-10.95,-42.52
60,-10.95,-42.52
60.1,-10.95,-42.52
60.2,-11.27,-42.52
60.3,-11.27,-42.52
60.4,-11.27,-41.99
60.5,-11.27,-41.99
60.6,-11.27,-41.99
60.7,-11.27,-41.99
60.8,-11.27,-41.99
60.9,-11.27,-41.99
61,-11.27,-41.99
61.1,-11.27,-41.99
61.2,-11.27,-41.99
61.3,-11.51,-42.19
61.4,-11.51,-42.19
61.5,-11.51,-42.19
61.6,-11.51,-42.19
61.7,-11.51,-42.19
61.8,-11.51,-42.19
61.9,-11.51,-42.19
62,-11.51,-42.19
62.1,-11.51,-42.19
62.2,-11.51,-42.71
62.3,-11.79,-42.71
62.4,-11.79,-42.71
62.5,-11.79,-42.71
62.6,-11.79,-42.71
62.7,-11.79,-42.71
62.8,-11.79,-42.71
62.9,-11.79,-42.71
63,-11.79,-42.71
63.1,-11.79,-42.71
63.2,-12.3,-42.71
63.3,-12.3,-43.16
63.4,-12.3,-43.16
63.5,-12.3,-43.16
63.6,-12.3,-43.16
63.7,-12.3,-43.16
63.8,-12.3,-43.16
63.9,-12.3,-43.16
64,-12.3,-43.16
64.1,-12.3,-43.16
64.2,-12.3,-42.63
64.3,-12.3,-42.63
64.4,-12.3,-42.63
64.5,-12.3,-42.63
64.6,-12.3,-42.63
64.7,-12.3,-42.63
64.8,-12.3,-42.63
64.9,-12.3,-42.63
65,-12.3,-42.63
65.1,-12.3,-42.63
65.2,-12.58,-42.8
65.3,-12.58,-42.8
65.4,-12.58,-42.8
65.5,-12.58,-42.8
65.6,-12.58,-42.8
65.7,-12.58,-42.8
65.8,-12.58,-42.8
65.9,-12.58,-42.8
66,-12.58,-42.8
66.1,-12.58,-42.99
66.2,-12.91,-42.99
66.3,-12.91,-42.99
66.4,-12.91,-42.99
66.5,-12.91,-42.99
66.6,-12.91,-42.99
66.7,-12.91,-42.99
66.8,-12.91,-42.99
66.9,-12.91,-42.99
67,-12.91,-42.99
67.1,-12.91,-42.99
67.2,-13.17,-42.91
67.3,-13.17,-42.91
67.4,-13.17,-42.91
67.5,-13.17,-42.91
67.6,-13.17,-42.91
67.7,-13.17,-42.91
67.8,-13.17,-42.91
67.9,-13.17,-42.91
68,-13.17,-42.91
68.1,-13.17,-42.91
68.2,-13.52,-43.16
68.3,-13.52,-43.16
68.4,-13.52,-43.16
68.5,-13.52,-43.16
68.6,-13.52,-43.16
68.7,-13.52,-43.16
68.8,-13.52,-43.16
68.9,-13.52,-43.16
69,-13.52,-43.16
69.1,-13.52,-43.13
69.2,-13.52,-43.13
69.3,-13.52,-43.13
69.4,-13.52,-43.13
69.5,-13.52,-43.13
69.6,-13.52,-43.13
69.7,-13.52,-43.13
69.8,-13.52,-43.13
69.9,-13.52,-43.13
70,-13.52,-43.13
70.1,-13.52,-43.13
70.2,-13.52,-44.33
70.3,-13.93,-44.33
70.4,-13.93,-44.33
70.5,-13.93,-44.33
70.6,-13.93,-44.33
70.7,-13.93,-44.33
70.8,-13.93,-44.33
70.9,-13.93,-44.33
71,-13.93,-44.33
71.1,-13.93,-44.33
71.2,-13.93,-44.16
71.3,-14.28,-44.16
71.4,-14.28,-44.16
71.5,-14.28,-44.16
71.6,-14.28,-44.16
71.7,-14.28,-44.16
71.8,-14.28,-44.16
71.9,-14.28,-44.16
72,-14.28,-44.16
72.1,-14.28,-44.16
72.2,-14.28,-44.49
72.3,-14.52,-44.49
72.4,-14.52,-44.49
72.5,-14.52,-44.49
72.6,-14.52,-44.49
72.7,-14.52,-44.49
72.8,-14.52,-44.49
72.9,-14.52,-44.49
73,-14.52,-44.49
73.1,-14.52,-44.21
73.2,-14.52,-44.21
73.3,-14.83,-44.21
73.4,-14.83,-44.21
73.5,-14.83,-44.21
73.6,-14.83,-44.21
73.7,-14.83,-44.21
73.8,-14.83,-44.21
73.9,-14.83,-44.21
74,-14.83,-44.21
74.1,-14.83,-44.21
74.2,-14.83,-45.91
74.3,-14.91,-45.91
74.4,-14.91,-45.91
74.5,-14.91,-45.91
74.6,-14.91,-45.91
74.7,-14.91,-45.91
74.8,-14.91,-45.91
74.9,-14.91,-45.91
75,-14.91,-45.91
75.1,-14.91,-45.91
75.2,-14.91,-45.28
75.3,-14.91,-45.28
75.4,-15.41,-45.28
75.5,-15.41,-45.28
75.6,-15.41,-45.28
75.7,-15.41,-45.28
75.8,-15.41,-45.28
75.9,-15.41,-45.28
76,-15.41,-45.28
76.1,-15.41,-45.28
76.2,-15.41,-46.55
76.3,-15.41,-46.55
76.4,-15.68,-46.55
76.5,-15.68,-46.55
76.6,-15.68,-46.55
76.7,-15.68,-46.55
76.8,-15.68,-46.55
76.9,-15.68,-46.55
77,-15.68,-46.55
77.1,-15.68,-46.55
77.2,-16.21,-46.49
77.3,-16.21,-46.49
77.4,-16.21,-46.49
77.5,-16.21,-46.49
77.6,-16.21,-46.49
77.7,-16.21,-46.49
77.8,-16.21,-46.49
77.9,-16.21,-46.49
78,-16.21,-46.49
78.1,-16.21,-46.49
78.2,-16.21,-46.85
78.3,-16.21,-46.85
78.4,-16.21,-46.85
78.5,-16.21,-46.85
78.6,-16.21,-46.85
78.7,-16.21,-46.85
78.8,-16.21,-46.85
78.9,-16.21,-46.85
79,-16.21,-46.85
79.1,-16.21,-46.85
79.2,-16.21,-47.6
79.3,-16.49,-47.6
79.4,-16.49,-47.6
79.5,-16.49,-47.6
79.6,-16.49,-47.6
79.7,-16.49,-47.6
79.8,-16.49,-47.6
79.9,-16.49,-47.6
80,-16.49,-47.6
80.1,-16.49,-47.6
80.2,-16.49,-47.88
80.3,-16.49,-47.88
80.4,-16.58,-47.88
80.5,-16.58,-47.88
80.6,-16.58,-47.88
80.7,-16.58,-47.88
80.8,-16.58,-47.88
80.9,-16.58,-47.88
81,-16.58,-47.88
81.1,-16.58,-47.88
81.2,-16.58,-48.71
81.3,-16.58,-48.71
81.4,-16.96,-48.71
81.5,-16.96,-48.71
81.6,-16.96,-48.71
81.7,-16.96,-48.71
81.8,-16.96,-48.71
81.9,-16.96,-48.71
82,-16.96,-48.71
82.1,-16.96,-48.71
82.2,-16.96,-48.99
82.3,-16.96,-48.99
82.4,-17.27,-48.99
82.5,-17.27,-48.99
82.6,-17.27,-48.99
82.7,-17.27,-48.99
82.8,-17.27,-48.99
82.9,-17.27,-48.99
83,-17.27,-48.99
83.1,-17.27,-48.99
83.2,-17.27,-50.55
83.3,-17.27,-50.55
83.4,-17.51,-50.55
83.5,-17.51,-50.55
83.6,-17.51,-50.55
83.7,-17.51,-50.55
83.8,-17.51,-50.55
83.9,-17.51,-50.55
84,-17.51,-50.55
84.1,-17.51,-50.55
84.2,-17.51,-49.88
84.3,-17.51,-49.88
84.4,-17.51,-49.88
84.5,-17.67,-49.88
84.6,-17.67,-49.88
84.7,-17.67,-49.88
84.8,-17.67,-49.88
84.9,-17.67,-49.88
85,-17.67,-49.88
85.1,-18.13,-49.88
85.2,-18.13,-49.94
85.3,-18.13,-49.94
85.4,-18.13,-49.94
85.5,-18.13,-49.94
85.6,-18.13,-49.94
85.7,-18.13,-49.94
85.8,-18.13,-49.94
85.9,-18.13,-49.94
86,-18.13,-49.94
86.1,-18.13,-49.94
86.2,-18.13,-49.94
86.3,-18.13,-50.66
86.4,-18.13,-50.66
86.5,-18.13,-50.66
86.6,-18.13,-50.66
86.7,-18.13,-50.66
86.8,-18.13,-50.66
86.9,-18.13,-50.66
87,-18.13,-50.66
87.1,-18.13,-50.66
87.2,-18.13,-51.44
87.3,-18.34,-51.44
87.4,-18.34,-51.44
87.5,-18.34,-51.44
87.6,-18.34,-51.44
87.7,-18.34,-51.44
87.8,-18.34,-51.44
87.9,-18.34,-51.44
88,-18.34,-51.44
88.1,-18.34,-51.44
88.2,-18.66,-50.63
88.3,-18.66,-50.63
88.4,-18.66,-50.63
88.5,-18.66,-50.63
88.6,-18.66,-50.63
88.7,-18.66,-50.63
88.8,-18.66,-50.63
88.9,-18.66,-50.63
89,-18.66,-50.63
89.1,-18.77,-52.63
89.2,-18.77,-52.63
89.3,-18.77,-52.63
89.4,-18.77,-52.63
89.5,-18.77,-52.63
89.6,-18.77,-52.63
89.7,-18.77,-52.63
89.8,-18.77,-52.63
89.9,-18.77,-52.63
90,-18.77,-53.52
90.1,-18.77,-53.52
90.2,-18.77,-53.52
90.3,-18.77,-53.52
90.4,-19.02,-53.52
90.5,-19.02,-53.52
90.6,-19.02,-53.52
90.7,-19.02,-53.52
90.8,-19.02,-53.52
90.9,-19.02,-51.96
91,-19.02,-51.96
91.1,-19.02,-51.96
91.2,-19.02,-51.96
91.3,-19.27,-51.96
91.4,-19.27,-51.96
91.5,-19.27,-51.96
91.6,-19.27,-51.96
91.7,-19.27,-51.96
91.8,-19.27,-51.96
91.9,-19.27,-51.96
92,-19.27,-51.96
92.1,-19.27,-52.19
92.2,-19.27,-52.19
92.3,-19.27,-52.19
92.4,-19.57,-52.19
92.5,-19.57,-52.19
92.6,-19.57,-52.19
92.7,-19.57,-52.19
92.8,-20.04,-52.19
92.9,-20.04,-52.33
93,-20.04,-52.33
93.1,-20.04,-52.33
93.2,-20.04,-52.33
93.3,-20.04,-52.33
93.4,-20.04,-52.33
93.5,-20.04,-52.33
93.6,-20.04,-52.33
93.7,-20.04,-52.33
93.8,-20.04,-51.44
93.9,-20.04,-51.44
94,-20.04,-51.44
94.1,-20.04,-51.44
94.2,-20.04,-51.44
94.3,-20.04,-51.44
94.4,-20.04,-51.44
94.5,-20.04,-51.44
94.6,-20.04,-51.44
94.7,-20.04,-50.96
94.8,-20.12,-50.96
94.9,-20.12,-50.96
95,-20.12,-50.96
95.1,-20.12,-50.96
95.2,-20.12,-50.96
95.3,-20.12,-50.96
95.4,-20.12,-50.96
95.5,-20.12,-50.96
95.6,-20.12,-50.96
95.7,-20.12,-50.96
95.8,-20.12,-50.96
95.9,-20.12,-50.21
96,-20.37,-50.21
96.1,-20.37,-50.21
96.2,-20.37,-50.21
96.3,-20.37,-50.21
96.4,-20.37,-50.21
96.5,-20.37,-50.21
96.6,-20.37,-50.21
96.7,-20.37,-50.21
96.8,-20.51,-51.1
96.9,-20.51,-51.1
97,-20.51,-51.1
97.1,-20.51,-51.1
97.2,-20.51,-51.1
97.3,-20.51,-51.1
97.4,-20.51,-51.1
97.5,-20.51,-51.1
97.6,-20.51,-51.1
97.7,-20.51,-49.55
97.8,-20.51,-49.55
97.9,-20.51,-49.55
98,-20.51,-49.55
98.1,-20.84,-49.55
98.2,-20.84,-49.55
98.3,-20.84,-49.55
98.4,-20.84,-49.55
98.5,-20.84,-49.55
98.6,-20.84,-49.55
98.7,-20.84,-49.55
98.8,-20.84,-49.55
98.9,-20.84,-49.55
99,-21.02,-49.55
99.1,-21.02,-49.55
99.2,-21.02,-49.55
99.3,-21.02,-49.55
99.4,-21.02,-49.55
99.5,-21.02,-49.44
99.6,-21.02,-49.44
99.7,-21.02,-49.44
99.8,-21.02,-49.44
99.9,-21.02,-49.44
100,-21.02,-49.44
100.1,-21.19,-49.44
100.2,-21.19,-49.44
100.3,-21.19,-49.44
100.4,-21.19,-49.19
100.5,-21.19,-49.19
100.6,-21.19,-49.19
100.7,-21.19,-49.19
100.8,-21.19,-49.19
100.9,-21.19,-49.19
101,-21.48,-49.19
101.1,-21.48,-49.19
101.2,-21.48,-49.19
101.3,-21.48,-49.19
101.4,-21.48,-48.33
101.5,-21.48,-48.33
101.6,-21.48,-48.33
101.7,-21.48,-48.33
101.8,-21.48,-48.33
101.9,-21.48,-48.33
102,-21.48,-48.33
102.1,-21.48,-48.33
102.2,-21.73,-48.33
102.3,-21.73,-48.33
102.4,-21.73,-47.05
102.5,-21.73,-47.05
102.6,-21.73,-47.05
102.7,-21.73,-47.05
102.8,-21.73,-47.05
102.9,-21.73,-47.05
103,-21.73,-47.05
103.1,-21.73,-47.05
103.2,-21.91,-47.05
103.3,-21.91,-46.74
103.4,-21.91,-46.74
103.5,-21.91,-46.74
103.6,-21.91,-46.74
103.7,-21.91,-46.74
103.8,-21.91,-46.74
103.9,-21.91,-46.74
104,-21.91,-46.74
104.1,-21.91,-46.74
104.2,-21.91,-46.74
104.3,-21.91,-46.74
104.4,-21.91,-46.74
104.5,-22.02,-46.74
104.6,-22.02,-46.74
104.7,-22.02,-46.74
104.8,-22.02,-46.74
104.9,-22.67,-46.74
105,-22.67,-46.74
105.1,-22.67,-46.74
105.2,-22.67,-46.74
105.3,-22.67,-46.74
105.4,-22.67,-45.38
105.5,-22.67,-45.38
105.6,-22.67,-45.38
105.7,-22.67,-46.23
105.8,-22.67,-46.23
105.9,-22.67,-46.23
106,-22.67,-46.23
106.1,-22.67,-46.23
106.2,-22.67,-46.23
106.3,-22.67,-46.23
106.4,-22.67,-46.23
106.5,-22.67,-46.23
106.6,-22.67,-44.27
106.7,-22.67,-44.27
106.8,-22.67,-44.27
106.9,-22.84,-44.27
107,-22.84,-44.27
107.1,-22.84,-44.27
107.2,-22.84,-44.27
107.3,-22.84,-44.27
107.4,-22.84,-44.27
107.5,-22.84,-44.27
107.6,-22.84,-44.02
107.7,-22.84,-44.02
107.8,-22.84,-44.02
107.9,-22.84,-44.02
108,-22.84,-44.02
108.1,-23.15,-44.02
108.2,-23.15,-44.02
108.3,-23.15,-44.02
108.4,-23.15,-44.02
108.5,-23.15,-44.08
108.6,-23.15,-44.08
108.7,-23.15,-44.08
108.8,-23.15,-44.08
108.9,-23.15,-44.08
109,-23.41,-44.08
109.1,-23.41,-44.08
109.2,-23.41,-44.08
109.3,-23.41,-44.08
109.4,-23.41,-44.08
109.5,-23.41,-44.08
109.6,-23.41,-44.16
109.7,-23.41,-44.16
109.8,-23.41,-44.16
109.9,-23.41,-44.16
110,-23.41,-44.16
110.1,-23.69,-44.16
110.2,-23.69,-44.16
110.3,-23.69,-44.16
110.4,-23.69,-44.16
110.5,-23.69,-44.16
110.6,-23.69,-44.17
110.7,-23.69,-44.17
110.8,-23.69,-44.17
110.9,-23.69,-44.17
111,-23.69,-44.17
111.1,-23.97,-44.17
111.2,-23.97,-44.17
111.3,-23.97,-44.17
111.4,-23.97,-44.17
111.5,-23.97,-43.37
111.6,-23.97,-43.37
111.7,-23.97,-43.37
111.8,-23.97,-43.37
111.9,-23.97,-43.37
112,-23.97,-43.37
112.1,-23.97,-43.37
112.2,-24.36,-43.37
112.3,-24.36,-43.37
112.4,-24.36,-43.37
112.5,-24.36,-43.37
112.6,-24.36,-43.46
112.7,-24.36,-43.46
112.8,-24.36,-43.46
112.9,-24.36,-43.46
113,-24.36,-43.46
113.1,-24.49,-43.46
113.2,-24.49,-43.46
113.3,-24.49,-43.46
113.4,-24.49,-43.46
113.5,-24.49,-42.6
113.6,-24.49,-42.6
113.7,-24.49,-42.6
113.8,-24.49,-42.6
113.9,-24.49,-42.6
114,-24.49,-42.6
114.1,-24.49,-42.6
114.2,-24.49,-42.6
114.3,-24.93,-42.6
114.4,-24.93,-42.6
114.5,-24.93,-42.6
114.6,-24.93,-42.74
114.7,-24.93,-42.74
114.8,-24.93,-42.74
114.9,-24.93,-42.74
115,-24.93,-42.74
115.1,-24.93,-42.74
115.2,-25.13,-42.74
115.3,-25.13,-42.74
115.4,-25.13,-42.74
115.5,-25.13,-42.74
115.6,-25.13,-42.46
115.7,-25.13,-42.46
115.8,-25.13,-42.46
115.9,-25.13,-42.46
116,-25.13,-42.46
116.1,-25.13,-42.46
116.2,-25.13,-42.46
116.3,-25.13,-42.46
116.4,-25.55,-42.46
116.5,-25.55,-42.46
116.6,-25.55,-41.85
116.7,-25.55,-41.85
116.8,-25.55,-41.85
116.9,-25.55,-41.85
117,-25.55,-41.85
117.1,-25.55,-41.85
117.2,-25.55,-41.85
117.3,-25.83,-41.85
117.4,-25.83,-41.85
117.5,-25.83,-41.85
117.6,-25.83,-41.85
117.7,-25.83,-41.85
117.8,-25.83,-41.85
117.9,-25.83,-41.85
118,-25.83,-41.85
118.1,-25.83,-41.85
118.2,-26.44,-41.85
118.3,-26.44,-41.85
118.4,-26.44,-41.85
118.5,-26.44,-41.85
118.6,-26.44,-41.19
118.7,-26.44,-41.19
118.8,-26.44,-41.19
118.9,-26.44,-41.19
119,-26.44,-41.19
119.1,-27.21,-40.71
119.2,-27.21,-40.71
119.3,-27.21,-40.71
119.4,-27.21,-40.71
119.5,-27.21,-40.71
119.6,-27.21,-40.71
119.7,-27.21,-40.71
119.8,-27.21,-40.71
119.9,-27.21,-40.71
120,-27.21,-40.71
120.1,-27.21,-40.71
120.2,-27.21,-40.71
120.3,-27.21,-40.95
120.4,-27.21,-40.95
120.5,-27.21,-40.95
120.6,-27.21,-40.95
120.7,-27.21,-40.95
120.8,-27.21,-40.95
120.9,-27.21,-40.95
121,-27.21,-40.95
121.1,-27.57,-40.95
121.2,-27.57,-40.33
121.3,-27.57,-40.33
121.4,-27.57,-40.33
121.5,-27.57,-40.33
121.6,-27.57,-40.33
121.7,-27.57,-40.33
121.8,-27.57,-40.33
121.9,-27.57,-40.33
122,-27.57,-40.4
122.1,-27.94,-40.4
122.2,-27.94,-40.4
122.3,-27.94,-40.4
122.4,-27.94,-40.4
122.5,-27.94,-40.4
122.6,-27.94,-40.4
122.7,-27.94,-40.4
122.8,-28.21,-40.4
122.9,-28.21,-40.4
123,-28.21,-39.99
123.1,-28.21,-39.99
123.2,-28.21,-39.99
123.3,-28.21,-39.99
123.4,-28.21,-39.99
123.5,-28.21,-39.99
123.6,-28.21,-39.99
123.7,-28.21,-39.99
123.8,-28.21,-39.99
123.9,-28.21,-39.99
124,-28.21,-39.99
124.1,-28.21,-39.71
124.2,-28.21,-39.71
124.3,-28.21,-39.71
124.4,-28.21,-39.71
124.5,-28.21,-39.71
124.6,-28.21,-39.71
124.7,-28.21,-39.71
124.8,-28.21,-39.71
124.9,-28.99,-39.71
125,-28.99,-40.08
125.1,-28.99,-40.08
125.2,-28.99,-40.08
125.3,-28.99,-40.08
125.4,-28.99,-40.08
125.5,-28.99,-40.08
125.6,-28.99,-40.08
125.7,-28.99,-40.08
125.8,-28.99,-40.08
125.9,-28.99,-40.08
126,-28.99,-40.08
126.1,-30.08,-40.08
126.2,-30.08,-40.08
126.3,-30.08,-40.08
126.4,-30.08,-40.08
126.5,-30.08,-40.08
126.6,-30.08,-40.08
126.7,-30.08,-40.08
126.8,-30.08,-40.08
126.9,-30.08,-40.08
127,-30.08,-40.08
127.1,-30.21,-39.94
127.2,-30.21,-39.94
127.3,-30.21,-39.94
127.4,-30.21,-39.94
127.5,-30.21,-39.94
127.6,-30.21,-39.94
127.7,-30.21,-39.77
127.8,-30.21,-39.77
127.9,-30.21,-39.77
128,-30.69,-39.77
128.1,-30.69,-39.77
128.2,-30.69,-39.77
128.3,-30.69,-39.77
128.4,-30.69,-39.77
128.5,-30.69,-39.77
128.6,-30.69,-39.77
128.7,-30.69,-39.38
128.8,-30.69,-39.38
128.9,-30.69,-39.38
129,-30.69,-39.38
129.1,-30.69,-39.38
129.2,-31.74,-39.38
129.3,-31.74,-39.38
129.4,-31.74,-39.38
129.5,-31.74,-39.38
129.6,-31.74,-39.38
129.7,-31.74,-39.63
129.8,-31.74,-39.63
129.9,-31.74,-39.63
130,-31.74,-39.63
130.1,-31.74,-39.63
130.2,-32.49,-39.63
130.3,-32.49,-39.63
130.4,-32.49,-39.63
130.5,-32.49,-39.63
130.6,-32.49,-39.63
130.7,-32.49,-39.66
130.8,-32.49,-39.66
130.9,-32.49,-39.66
131,-32.49,-39.66
131.1,-32.88,-39.66
131.2,-32.88,-39.66
131.3,-32.88,-39.66
131.4,-32.88,-39.66
131.5,-32.88,-39.66
131.6,-32.88,-39.66
131.7,-32.88,-39.65
131.8,-32.88,-39.65
131.9,-32.88,-39.65
132,-32.88,-39.65
132.1,-32.88,-39.65
132.2,-33.46,-39.65
132.3,-33.46,-39.65
132.4,-33.46,-39.65
132.5,-33.46,-39.65
132.6,-33.46,-39.65
132.7,-33.46,-39.65
132.8,-33.46,-39.49
132.9,-33.46,-39.49
133,-33.46,-39.49
133.1,-33.46,-39.49
133.2,-34.69,-39.49
133.3,-34.69,-39.49
133.4,-34.69,-39.49
133.5,-34.69,-39.49
133.6,-34.69,-39.49
133.7,-34.69,-38.91
133.8,-34.69,-38.91
133.9,-34.69,-38.91
134,-34.69,-38.91
134.1,-34.69,-38.91
134.2,-35.38,-38.91
134.3,-35.38,-38.91
134.4,-35.38,-38.91
134.5,-35.38,-38.91
134.6,-35.38,-38.91
134.7,-35.38,-38.91
134.8,-35.38,-38.91
134.9,-35.38,-38.91
135,-35.38,-38.91
135.1,-37.02,-38.91
135.2,-37.02,-38.91
135.3,-37.02,-38.91
135.4,-37.02,-38.91
135.5,-37.02,-38.91
135.6,-37.02,-38.91
135.7,-37.02,-39.08
135.8,-37.02,-39.08
135.9,-37.02,-39.08
136,-37.02,-39.08
136.1,-37.02,-39.08
136.2,-38.49,-39.08
136.3,-38.49,-39.16
136.4,-38.49,-39.16
136.5,-38.49,-39.16
136.6,-38.49,-39.16
136.7,-38.49,-39.16
136.8,-38.49,-39.16
136.9,-38.49,-39.16
137,-38.49,-39.16
137.1,-38.49,-39.33
137.2,-38.91,-39.33
137.3,-38.91,-39.33
137.4,-38.91,-39.33
137.5,-38.91,-39.33
137.6,-38.91,-39.33
137.7,-38.91,-39.33
137.8,-38.91,-39.33
137.9,-38.91,-39.33
138,-38.91,-39.52
138.1,-40.46,-39.52
138.2,-40.46,-39.52
138.3,-40.46,-39.52
138.4,-40.46,-39.52
138.5,-40.46,-39.52
138.6,-40.46,-39.52
138.7,-40.46,-39.52
138.8,-40.46,-39.52
138.9,-40.46,-39.36
139,-40.46,-39.36
139.1,-40.46,-39.36
139.2,-41.16,-39.36
139.3,-41.16,-39.36
139.4,-41.16,-39.36
139.5,-41.16,-39.36
139.6,-41.16,-39.36
139.7,-41.16,-39.36
139.8,-41.16,-39.36
139.9,-41.16,-39.36
140,-41.16,-39.36
140.1,-41.16,-39.77
140.2,-42.33,-39.77
140.3,-42.33,-39.77
140.4,-42.33,-39.77
140.5,-42.33,-39.77
140.6,-42.33,-39.77
140.7,-42.33,-39.77
140.8,-42.33,-39.77
140.9,-42.33,-39.77
141,-42.33,-39.71
141.1,-43.46,-39.71
141.2,-43.46,-39.71
141.3,-43.46,-39.71
141.4,-43.46,-39.71
141.5,-43.46,-39.71
141.6,-43.46,-39.71
141.7,-43.46,-39.71
141.8,-43.46,-39.71
141.9,-43.46,-39.71
142,-43.46,-39.87
142.1,-43.46,-39.87
142.2,-43.46,-39.87
142.3,-43.8,-39.87
142.4,-43.8,-39.87
142.5,-43.8,-39.87
142.6,-43.8,-39.87
142.7,-43.8,-39.87
142.8,-43.8,-39.87
142.9,-43.8,-39.87
143,-43.8,-40.44
143.1,-43.8,-40.44
143.2,-43.8,-40.44
143.3,-42.52,-40.44
143.4,-42.52,-40.44
143.5,-42.52,-40.44
143.6,-42.52,-40.44
143.7,-42.52,-40.44
143.8,-42.52,-40.44
143.9,-42.52,-40.22
144,-42.52,-40.22
144.1,-42.52,-40.22
144.2,-40.69,-40.22
144.3,-40.69,-40.22
144.4,-40.69,-40.22
144.5,-38.58,-40.22
144.6,-38.58,-40.22
144.7,-38.58,-40.22
144.8,-38.58,-40.22
144.9,-38.58,-40.71
145,-38.58,-40.71
145.1,-38.58,-40.71
145.2,-38.58,-40.71
145.3,-38.58,-40.71
145.4,-38.58,-40.71
145.5,-38.58,-40.71
145.6,-38.58,-40.71
145.7,-38.58,-40.71
145.8,-38.58,-40.71
145.9,-38.58,-40.71
146,-38.58,-41.12
146.1,-38.58,-41.12
146.2,-38.58,-41.12
146.3,-38.58,-41.12
146.4,-38.58,-41.12
146.5,-38.58,-41.12
146.6,-38.58,-41.12
146.7,-37.74,-41.12
146.8,-37.74,-41.12
146.9,-37.74,-41.19
147,-37.74,-41.19
147.1,-37.74,-41.19
147.2,-37.74,-41.19
147.3,-37.74,-41.19
147.4,-37.74,-41.19
147.5,-37.74,-41.19
147.6,-36.3,-41.19
147.7,-36.3,-41.19
147.8,-36.3,-41.19
147.9,-36.3,-41.99
148,-36.3,-41.99
148.1,-36.3,-41.99
148.2,-36.3,-41.99
148.3,-34.69,-41.99
148.4,-34.69,-41.99
148.5,-34.69,-41.99
148.6,-34.69,-41.99
148.7,-34.69,-41.99
148.8,-34.69,-41.99
148.9,-34.69,-42.08
149,-34.69,-42.08
149.1,-34.69,-42.08
149.2,-34.69,-42.08
149.3,-34.69,-42.08
149.4,-34.69,-42.08
149.5,-34.69,-42.08
149.6,-34.69,-42.08
149.7,-34.69,-42.08
149.8,-34.69,-42.08
149.9,-34.69,-42.42
150,-34.69,-42.42
150.1,-34.69,-42.42
150.2,-34.69,-42.42
150.3,-34.69,-42.42
150.4,-33.88,-42.42
150.5,-33.88,-42.42
150.6,-33.88,-42.42
150.7,-33.88,-42.42
150.8,-33.88,-42.42
150.9,-33.88,-42.42
151,-33.88,-42.42
151.1,-33.88,-42.42
151.2,-33.88,-42.42
151.3,-33.88,-42.42
151.4,-32.96,-42.42
151.5,-32.96,-42.42
151.6,-32.96,-42.42
151.7,-32.96,-42.42
151.8,-32.96,-42.42
151.9,-32.96,-43.03
152,-32.96,-43.03
152.1,-32.96,-43.03
152.2,-32.96,-43.03
152.3,-32.49,-43.03
152.4,-32.49,-43.03
152.5,-32.49,-43.03
152.6,-32.49,-43.03
152.7,-32.49,-43.03
152.8,-32.49,-43.03
152.9,-32.49,-44.02
153,-32.49,-44.02
153.1,-32.49,-44.02
153.2,-32.49,-44.02
153.3,-32.08,-44.02
153.4,-32.08,-44.02
153.5,-32.08,-44.02
153.6,-32.08,-44.02
153.7,-32.08,-44.02
153.8,-32.08,-44.45
153.9,-32.08,-44.45
154,-32.08,-44.45
154.1,-32.08,-44.45
154.2,-32.08,-44.45
154.3,-32.08,-44.45
154.4,-31.3,-44.45
154.5,-31.3,-44.45
154.6,-31.3,-44.45
154.7,-31.3,-44.45
154.8,-31.3,-44.44
154.9,-31.3,-44.44
155,-31.3,-44.44
155.1,-31.3,-44.44
155.2,-31.3,-44.44
155.3,-31.3,-44.44
155.4,-30.8,-44.44
155.5,-30.8,-44.44
155.6,-30.8,-44.44
155.7,-30.8,-44.88
155.8,-30.8,-44.88
155.9,-30.8,-44.88
156,-30.8,-44.88
156.1,-30.8,-44.88
156.2,-30.8,-44.88
156.3,-29.74,-44.88
156.4,-29.74,-44.88
156.5,-29.74,-44.88
156.6,-29.74,-44.88
156.7,-29.74,-44.88
156.8,-29.74,-44.88
156.9,-29.24,-45.35
157,-29.24,-45.35
157.1,-29.24,-45.35
157.2,-29.24,-45.35
157.3,-29.24,-45.35
157.4,-29.24,-45.35
157.5,-29.24,-45.35
157.6,-29.24,-45.35
157.7,-29.24,-45.35
157.8,-29.24,-45.1
157.9,-29.24,-45.1
158,-29.24,-45.1
158.1,-29.24,-45.1
158.2,-29.24,-45.1
158.3,-29.24,-45.1
158.4,-29.24,-45.1
158.5,-29.24,-45.1
158.6,-29.24,-45.1
158.7,-29.24,-45.1
158.8,-28.76,-45.1
158.9,-28.76,-45.88
159,-28.76,-45.88
159.1,-28.76,-45.88
159.2,-28.76,-45.88
159.3,-28.76,-45.88
159.4,-28.76,-45.88
159.5,-28.76,-45.88
159.6,-28.76,-45.88
159.7,-28.76,-45.88
159.8,-28.11,-45.88
159.9,-28.11,-47.16
160,-28.11,-47.16
160.1,-28.11,-47.16
160.2,-28.11,-47.16
160.3,-28.11,-47.16
160.4,-28.11,-47.16
160.5,-28.11,-47.16
160.6,-28.11,-47.16
160.7,-27.79,-47.16
160.8,-27.79,-47.08
160.9,-27.79,-47.08
161,-27.79,-47.08
161.1,-27.79,-47.08
161.2,-27.79,-47.08
161.3,-27.79,-47.08
161.4,-27.79,-47.08
161.5,-27.79,-47.08
161.6,-27.44,-47.08
161.7,-27.44,-47.08
161.8,-27.44,-47.08
161.9,-27.44,-48.74
162,-27.44,-48.74
162.1,-27.44,-48.74
162.2,-27.44,-48.74
162.3,-27.44,-48.74
162.4,-27.44,-48.74
162.5,-27.13,-48.74
162.6,-27.13,-48.74
162.7,-27.13,-48.74
162.8,-27.13,-48.74
162.9,-27.13,-48.3
163,-27.13,-48.3
163.1,-27.13,-48.3
163.2,-27.13,-48.3
163.3,-27.13,-48.3
163.4,-27.13,-48.3
163.5,-27.13,-48.3
163.6,-26.75,-48.3
163.7,-26.75,-49.1
163.8,-26.75,-49.1
163.9,-26.75,-49.1
164,-26.75,-49.1
164.1,-26.75,-49.1
164.2,-26.75,-49.1
164.3,-26.75,-49.1
164.4,-26.75,-49.1
164.5,-26.75,-49.1
164.6,-26.44,-49.91
164.7,-26.44,-49.91
164.8,-26.44,-49.91
164.9,-26.44,-49.91
165,-26.44,-49.91
165.1,-26.44,-49.91
165.2,-26.44,-49.91
165.3,-26.44,-49.91
165.4,-26.44,-49.91
165.5,-25.82,-49.91
165.6,-25.82,-49.91
165.7,-25.82,-49.91
165.8,-25.82,-51.21
165.9,-25.82,-51.21
166,-25.82,-51.21
166.1,-25.82,-51.21
166.2,-25.82,-51.21
166.3,-25.82,-51.21
166.4,-25.82,-51.21
166.5,-25.82,-51.21
166.6,-25.82,-51.21
166.7,-25.82,-50.33
166.8,-25.82,-50.33
166.9,-25.82,-50.33
167,-25.82,-50.33
167.1,-25.82,-50.33
167.2,-25.82,-50.33
167.3,-25.82,-50.33
167.4,-25.82,-50.33
167.5,-25.76,-50.33
167.6,-25.76,-51.13
167.7,-25.76,-51.13
167.8,-25.76,-51.13
167.9,-25.76,-51.13
168,-25.76,-51.13
168.1,-25.76,-51.13
168.2,-25.76,-51.13
168.3,-25.76,-51.13
168.4,-25.76,-51.13
168.5,-25.57,-51.13
168.6,-25.57,-50.44
168.7,-25.57,-50.44
168.8,-25.57,-50.44
168.9,-25.57,-50.44
169,-25.57,-50.44
169.1,-25.57,-50.44
169.2,-25.57,-50.44
169.3,-25.57,-50.44
169.4,-25.57,-50.44
169.5,-25.6,-50.44
169.6,-25.6,-50.44
169.7,-25.6,-50.44
169.8,-25.6,-51.63
169.9,-25.6,-51.63
170,-25.6,-51.63
170.1,-25.6,-51.63
170.2,-25.6,-51.63
170.3,-25.6,-51.63
170.4,-25.6,-51.63
170.5,-25.27,-51.63
170.6,-25.27,-51.63
170.7,-25.27,-51.63
170.8,-25.27,-50.38
170.9,-25.27,-50.38
171,-25.27,-50.38
171.1,-25.27,-50.38
171.2,-25.27,-50.38
171.3,-25.27,-50.38
171.4,-25.01,-50.38
171.5,-25.01,-50.38
171.6,-25.01,-50.38
171.7,-25.01,-49.94
171.8,-25.01,-49.94
171.9,-25.01,-49.94
172,-25.01,-49.94
172.1,-25.01,-49.94
172.2,-25.01,-49.94
172.3,-25.01,-49.94
172.4,-25.01,-49.94
172.5,-25.05,-49.94
172.6,-25.05,-49.94
172.7,-25.05,-49.94
172.8,-25.05,-49.94
172.9,-25.05,-49.27
173,-25.05,-49.27
173.1,-25.05,-49.27
173.2,-25.05,-49.27
173.3,-25.05,-49.27
173.4,-25.05,-49.27
173.5,-24.85,-49.27
173.6,-24.85,-49.27
173.7,-24.85,-49.27
173.8,-24.85,-49.52
173.9,-24.85,-49.52
174,-24.85,-49.52
174.1,-24.85,-49.52
174.2,-24.85,-49.52
174.3,-24.85,-49.52
174.4,-24.66,-49.52
174.5,-24.66,-49.52
174.6,-24.66,-49.52
174.7,-24.66,-48.05
174.8,-24.66,-48.05
174.9,-24.66,-48.05
175,-24.66,-48.05
175.1,-24.66,-48.05
175.2,-24.66,-48.05
175.3,-24.66,-48.05
175.4,-24.59,-48.05
175.5,-24.59,-48.05
175.6,-24.59,-48.05
175.7,-24.59,-48.05
175.8,-24.59,-48.05
175.9,-24.59,-48.85
176,-24.59,-48.85
176.1,-24.59,-48.85
176.2,-24.59,-48.85
176.3,-24.59,-48.85
176.4,-24.59,-48.85
176.5,-24.68,-48.85
176.6,-24.68,-48.85
176.7,-24.68,-48.85
176.8,-24.68,-47.33
176.9,-24.68,-47.33
177,-24.68,-47.33
177.1,-24.68,-47.33
177.2,-24.68,-47.33
177.3,-24.68,-47.33
177.4,-24.7,-47.33
177.5,-24.7,-47.33
177.6,-24.7,-47.33
177.7,-24.7,-47.33
177.8,-24.7,-47.33
177.9,-24.7,-47.33
178,-24.7,-47.74
178.1,-24.7,-47.74
178.2,-24.7,-47.74
178.3,-24.5,-47.74
178.4,-24.5,-47.74
178.5,-24.5,-47.74
178.6,-24.5,-47.74
178.7,-24.5,-47.74
178.8,-24.5,-47.74
178.9,-24.5,-47.43
179,-24.5,-47.43
179.1,-24.5,-47.43
179.2,-24.49,-47.43
179.3,-24.49,-47.43
179.4,-24.49,-47.43
179.5,-24.49,-47.43
179.6,-24.49,-47.43
179.7,-24.49,-47.43
179.8,-24.49,-47.43
179.9,-24.49,-47.43
180,-24.49,-46.3
180.1,-24.49,-46.3
180.2,-24.49,-46.3
180.3,-24.49,-46.3
180.4,-24.58,-46.3
180.5,-24.58,-46.3
180.6,-24.58,-46.3
180.7,-24.58,-46.3
180.8,-24.58,-46.3
180.9,-24.58,-46.3
181,-24.58,-46.3
181.1,-24.58,-46.3
181.2,-24.58,-46.3
181.3,-24.6,-46.3
181.4,-24.6,-46.3
181.5,-24.6,-46.3
181.6,-24.6,-46.3
181.7,-24.6,-46.3
181.8,-24.6,-46.3
181.9,-24.6,-46.3
182,-24.6,-46.3
182.1,-24.6,-45.35
182.2,-24.8,-45.35
182.3,-24.8,-45.35
182.4,-24.8,-44.69
182.5,-24.8,-44.69
182.6,-24.8,-44.69
182.7,-24.8,-44.69
182.8,-24.8,-44.69
182.9,-24.8,-44.69
183,-24.8,-44.69
183.1,-24.82,-44.69
183.2,-24.82,-44.69
183.3,-24.82,-44.27
183.4,-24.82,-44.27
183.5,-24.82,-44.27
183.6,-24.82,-44.27
183.7,-24.82,-44.27
183.8,-24.82,-44.27
183.9,-24.82,-44.27
184,-24.82,-44.27
184.1,-24.82,-44.27
184.2,-24.82,-44.27
184.3,-24.87,-44.27
184.4,-24.87,-44.27
184.5,-24.87,-44.27
184.6,-24.87,-44.27
184.7,-24.87,-44.27
184.8,-24.87,-44.27
184.9,-24.87,-44.27
185,-24.87,-44.27
185.1,-24.87,-44.27
185.2,-25.09,-44.27
185.3,-25.09,-44.27
185.4,-25.09,-44.7
185.5,-25.09,-44.7
185.6,-25.09,-44.7
185.7,-25.09,-44.7
185.8,-25.09,-44.7
185.9,-25.09,-44.7
186,-25.12,-44.7
186.1,-25.12,-44.19
186.2,-25.12,-44.19
186.3,-25.12,-44.19
186.4,-25.12,-44.19
186.5,-25.12,-44.19
186.6,-25.12,-44.19
186.7,-25.12,-44.19
186.8,-25.12,-44.19
186.9,-25.24,-44.19
187,-25.24,-44.19
187.1,-25.24,-43.88
187.2,-25.24,-43.88
187.3,-25.24,-43.88
187.4,-25.24,-43.88
187.5,-25.24,-43.88
187.6,-25.24,-43.88
187.7,-25.24,-43.88
187.8,-25.24,-43.88
187.9,-25.46,-43.88
188,-25.46,-43.88
188.1,-25.46,-43.77
188.2,-25.46,-43.77
188.3,-25.46,-43.77
188.4,-25.46,-43.77
188.5,-25.46,-43.77
188.6,-25.46,-43.77
188.7,-25.46,-43.77
188.8,-25.46,-43.77
188.9,-25.46,-43.77
189,-25.46,-43.77
189.1,-25.72,-43.38
189.2,-25.72,-43.38
189.3,-25.72,-43.38
189.4,-25.72,-43.38
189.5,-25.72,-43.38
189.6,-25.72,-43.38
189.7,-25.72,-43.38
189.8,-25.72,-43.38
189.9,-25.72,-43.38
190,-25.71,-43.38
190.1,-25.71,-43.38
190.2,-25.71,-43.27
190.3,-25.71,-43.27
190.4,-25.71,-43.27
190.5,-25.71,-43.27
190.6,-25.71,-43.27
190.7,-25.71,-43.27
190.8,-26.16,-43.27
190.9,-26.16,-43.27
191,-26.16,-43.27
191.1,-26.16,-43.27
191.2,-26.16,-42.63
191.3,-26.16,-42.63
191.4,-26.16,-42.63
191.5,-26.16,-42.63
191.6,-26.16,-42.63
191.7,-26.16,-42.63
191.8,-26.16,-42.63
191.9,-26.16,-42.63
192,-26.16,-42.63
192.1,-26.27,-42.63
192.2,-26.27,-43.6
192.3,-26.27,-43.6
192.4,-26.27,-43.6
192.5,-26.27,-43.6
192.6,-26.27,-43.6
192.7,-26.27,-43.6
192.8,-26.27,-43.6
192.9,-26.27,-43.6
193,-27.02,-43.6
193.1,-27.02,-43.6
193.2,-27.02,-43.6
193.3,-27.02,-43.23
193.4,-27.02,-43.23
193.5,-27.02,-43.23
193.6,-27.02,-43.23
193.7,-27.02,-43.23
193.8,-27.13,-43.23
193.9,-27.13,-43.23
194,-27.13,-43.23
194.1,-27.13,-43.23
194.2,-27.13,-43.74
194.3,-27.13,-43.74
194.4,-27.13,-43.74
194.5,-27.13,-43.74
194.6,-27.13,-43.74
194.7,-27.68,-43.74
194.8,-27.68,-43.74
194.9,-27.68,-43.74
195,-27.68,-43.74
195.1,-27.68,-43.74
195.2,-27.68,-43.74
195.3,-27.68,-43.66
195.4,-27.68,-43.66
195.5,-27.68,-43.66
195.6,-27.68,-43.66
195.7,-27.68,-43.66
195.8,-27.68,-43.66
195.9,-27.87,-43.66
196,-27.87,-43.66
196.1,-27.87,-43.66
196.2,-27.87,-43.66
196.3,-27.87,-43.6
196.4,-27.87,-43.6
196.5,-27.87,-43.6
196.6,-27.87,-43.6
196.7,-27.87,-43.6
196.8,-28.23,-43.6
196.9,-28.23,-43.6
197,-28.23,-43.6
197.1,-28.23,-43.6
197.2,-28.23,-43.6
197.3,-28.23,-44.21
197.4,-28.23,-44.21
197.5,-28.23,-44.21
197.6,-28.23,-44.21
197.7,-28.89,-44.21
197.8,-28.89,-44.21
197.9,-28.89,-44.21
198,-28.89,-44.21
198.1,-28.89,-44.21
198.2,-28.89,-44.21
198.3,-28.89,-44.21
198.4,-28.89,-44.21
198.5,-28.89,-44.21
198.6,-28.89,-44.21
198.7,-29.33,-44.21
198.8,-29.33,-44.21
198.9,-29.33,-44.21
199,-29.33,-44.21
199.1,-29.33,-44.21
199.2,-29.33,-44.21
199.3,-29.33,-44.21
199.4,-29.33,-44.21
199.5,-29.33,-44.02
199.6,-29.33,-44.02
199.7,-29.33,-44.02
199.8,-30.17,-44.02
199.9,-30.17,-44.02
200,-30.17,-44.02
200.1,-30.17,-44.02
200.2,-30.17,-44.52
200.3,-30.17,-44.52
200.4,-30.17,-44.52
200.5,-30.17,-44.52
200.6,-30.17,-44.52
200.7,-30.75,-44.52
200.8,-30.75,-44.52
200.9,-30.75,-44.52
201,-30.75,-44.52
201.1,-30.75,-44.52
201.2,-30.75,-44.05
201.3,-30.75,-44.05
201.4,-30.75,-44.05
201.5,-30.75,-44.05
201.6,-30.75,-44.05
201.7,-31.66,-44.05
201.8,-31.66,-44.05
201.9,-31.66,-44.05
202,-31.66,-44.05
202.1,-31.66,-44.05
202.2,-31.66,-44.8
202.3,-31.66,-44.8
202.4,-31.66,-44.8
202.5,-31.66,-44.8
202.6,-31.66,-44.8
202.7,-32.4,-44.8
202.8,-32.4,-44.8
202.9,-32.4,-44.8
203,-32.4,-44.8
203.1,-32.4,-44.8
203.2,-32.4,-45.13
203.3,-32.4,-45.13
203.4,-32.4,-45.13
203.5,-32.4,-45.13
203.6,-32.4,-45.13
203.7,-32.99,-45.13
203.8,-32.99,-45.13
203.9,-32.99,-45.13
204,-32.99,-45.13
204.1,-32.99,-45.13
204.2,-32.99,-44.49
204.3,-32.99,-44.49
204.4,-32.99,-44.49
204.5,-32.99,-44.49
204.6,-32.99,-44.49
204.7,-33.96,-44.49
204.8,-33.96,-44.49
204.9,-33.96,-44.49
205,-33.96,-44.49
205.1,-33.96,-44.49
205.2,-33.96,-44.49
205.3,-33.96,-45.27
205.4,-33.96,-45.27
205.5,-33.96,-45.27
205.6,-33.96,-45.27
205.7,-35.45,-45.27
205.8,-35.45,-45.27
205.9,-35.45,-45.27
206,-35.45,-45.27
206.1,-35.45,-45.27
206.2,-35.45,-45.27
206.3,-35.45,-45.27
206.4,-35.45,-45.27
206.5,-35.45,-45.27
206.6,-35.45,-45.27
206.7,-37.05,-45.27
206.8,-37.05,-45.27
206.9,-37.05,-45.27
207,-37.05,-45.27
207.1,-37.05,-45.27
207.2,-37.05,-45.89
207.3,-37.05,-45.89
207.4,-37.94,-45.89
207.5,-37.94,-45.89
207.6,-37.94,-45.89
207.7,-37.94,-45.89
207.8,-37.94,-45.89
207.9,-37.94,-45.89
208,-37.94,-45.89
208.1,-37.94,-45.89
208.2,-37.94,-46.16
208.3,-37.94,-46.16
208.4,-37.94,-46.16
208.5,-37.94,-46.16
208.6,-37.94,-46.16
208.7,-37.94,-46.16
208.8,-37.94,-46.16
208.9,-37.94,-46.16
209,-37.94,-46.16
209.1,-37.94,-46.16
209.2,-37.94,-46.38
209.3,-37.94,-46.38
209.4,-37.94,-46.38
209.5,-41.38,-46.38
209.6,-41.38,-46.38
209.7,-41.38,-46.38
209.8,-41.38,-46.38
209.9,-41.38,-46.38
210,-41.38,-46.38
210.1,-41.38,-46.38
210.2,-41.38,-46.38
210.3,-41.38,-46.38
210.4,-42.99,-46.38
210.5,-42.99,-46.38
210.6,-42.99,-46.38
210.7,-42.99,-46.38
210.8,-42.99,-46.38
210.9,-42.99,-46.38
211,-42.99,-46.38
211.1,-42.99,-46.38
211.2,-42.99,-47.19
211.3,-46.91,-47.19
211.4,-46.91,-47.19
211.5,-46.91,-47.19
211.6,-46.91,-47.19
211.7,-46.91,-47.19
211.8,-46.91,-46.55
211.9,-46.91,-46.55
212,-46.91,-46.55
212.1,-46.91,-46.55
212.2,-46.91,-46.55
212.3,-46.91,-46.55
212.4,-46.91,-46.55
212.5,-51.08,-46.55
212.6,-51.08,-46.55
212.7,-51.08,-46.27
212.8,-51.08,-46.27
212.9,-51.08,-46.27
213,-51.08,-46.27
213.1,-51.46,-46.27
213.2,-51.46,-46.27
213.3,-51.46,-46.27
213.4,-51.46,-46.27
213.5,-51.46,-46.27
213.6,-51.46,-46.27
213.7,-51.46,-46.27
213.8,-51.46,-46.27
213.9,-51.46,-46.88
214,-51.46,-46.88
214.1,-51.46,-46.88
214.2,-51.46,-46.88
214.3,-46.16,-46.88
214.4,-46.16,-46.88
214.5,-46.16,-46.88
214.6,-46.16,-46.88
214.7,-46.16,-46.88
214.8,-46.16,-47.55
214.9,-46.16,-47.55
215,-46.16,-47.55
215.1,-46.16,-47.55
215.2,-42.49,-47.55
215.3,-42.49,-47.55
215.4,-42.49,-47.55
215.5,-42.49,-47.55
215.6,-42.49,-47.55
215.7,-42.49,-47.55
215.8,-42.49,-47.55
215.9,-42.49,-47.55
216,-42.49,-46.66
216.1,-42.49,-46.66
216.2,-42.49,-46.66
216.3,-42.49,-46.66
216.4,-41.21,-46.66
216.5,-41.21,-46.66
216.6,-41.21,-46.66
216.7,-41.21,-46.66
216.8,-41.21,-46.66
216.9,-41.21,-47.37
217,-41.21,-47.37
217.1,-41.21,-47.37
217.2,-41.21,-47.37
217.3,-39.99,-47.37
217.4,-39.99,-47.37
217.5,-39.99,-47.37
217.6,-39.99,-47.37
217.7,-39.99,-47.37
217.8,-39.99,-47.37
217.9,-39.99,-47.37
218,-39.99,-47.37
218.1,-39.99,-47.37
218.2,-37.41,-47.37
218.3,-37.41,-47.37
218.4,-37.41,-47.37
218.5,-37.41,-47.37
218.6,-37.41,-47.37
218.7,-37.41,-47.37
218.8,-37.41,-47.37
218.9,-37.41,-47.37
219,-36.49,-47.56
219.1,-36.49,-47.56
219.2,-36.49,-47.56
219.3,-36.49,-47.56
219.4,-36.49,-47.56
219.5,-36.49,-47.44
219.6,-36.49,-47.44
219.7,-36.49,-47.44
219.8,-36.49,-47.44
219.9,-34.55,-47.44
220,-34.55,-47.44
220.1,-34.55,-47.44
220.2,-34.55,-47.44
220.3,-34.55,-47.44
220.4,-34.55,-47.91
220.5,-34.55,-47.91
220.6,-34.55,-47.91
220.7,-34.55,-47.91
220.8,-33.19,-47.91
220.9,-33.19,-47.91
221,-33.19,-47.91
221.1,-33.19,-47.91
221.2,-33.19,-47.91
221.3,-33.19,-47.91
221.4,-33.19,-47.91
221.5,-33.19,-47.91
221.6,-33.19,-47.91
221.7,-33.19,-48.05
221.8,-33.19,-48.05
221.9,-33.19,-48.05
222,-33.19,-48.05
222.1,-33.19,-48.05
222.2,-33.19,-48.05
222.3,-33.19,-48.05
222.4,-33.19,-48.05
222.5,-33.19,-47.88
222.6,-33.19,-47.88
222.7,-33.19,-47.88
222.8,-32.33,-47.88
222.9,-32.33,-47.88
223,-32.33,-47.88
223.1,-32.33,-47.88
223.2,-32.33,-47.88
223.3,-32.33,-47.88
223.4,-32.33,-47.88
223.5,-32.33,-47.88
223.6,-32.33,-47.88
223.7,-32.33,-47.88
223.8,-31.72,-47.88
223.9,-31.72,-48.74
224,-31.72,-48.74
224.1,-31.72,-48.74
224.2,-31.72,-48.74
224.3,-31.72,-48.74
224.4,-31.72,-48.74
224.5,-31.72,-48.74
224.6,-31.72,-48.74
224.7,-31.72,-47.96
224.8,-31.05,-47.96
224.9,-31.05,-47.96
225,-31.05,-47.96
225.1,-31.05,-47.96
225.2,-31.05,-47.96
225.3,-31.05,-47.96
225.4,-31.05,-47.96
225.5,-31.05,-47.96
225.6,-31.05,-47.96
225.7,-31.05,-47.96
225.8,-30.8,-47.96
225.9,-30.8,-47.96
226,-30.8,-48.74
226.1,-30.8,-48.74
226.2,-30.8,-48.74
226.3,-30.8,-48.74
226.4,-30.8,-48.74
226.5,-30.8,-48.74
226.6,-30.8,-48.74
226.7,-30.8,-48.74
226.8,-29.59,-48.74
226.9,-29.59,-48.74
227,-29.59,-49.13
227.1,-29.59,-49.13
227.2,-29.59,-49.13
227.3,-29.59,-49.13
227.4,-29.59,-49.13
227.5,-29.59,-49.13
227.6,-29.59,-49.13
227.7,-29.59,-49.13
227.8,-29.21,-49.13
227.9,-29.21,-49.13
228,-29.21,-49.13
228.1,-29.21,-49.08
228.2,-29.21,-49.08
228.3,-29.21,-49.08
228.4,-29.21,-49.08
228.5,-29.21,-49.08
228.6,-29.21,-49.08
228.7,-28.99,-49.08
228.8,-28.99,-49.08
228.9,-28.99,-49.08
229,-28.99,-49.08
229.1,-28.99,-49.21
229.2,-28.99,-49.21
229.3,-28.49,-49.21
229.4,-28.49,-49.21
229.5,-28.49,-49.21
229.6,-28.49,-49.21
229.7,-28.49,-49.21
229.8,-28.49,-49.21
229.9,-28.49,-49.21
230,-28.49,-49.21
230.1,-28.49,-49.21
230.2,-28.49,-49.91
230.3,-28.49,-49.91
230.4,-28.49,-49.91
230.5,-28.49,-49.91
230.6,-28.49,-49.91
230.7,-28.49,-49.91
230.8,-28.49,-49.91
230.9,-28.49,-49.91
231,-28.49,-49.91
231.1,-27.71,-49.91
231.2,-27.71,-49.94
231.3,-27.71,-49.94
231.4,-27.71,-49.94
231.5,-27.71,-49.94
231.6,-27.71,-49.94
231.7,-27.71,-49.94
231.8,-27.71,-49.94
231.9,-27.71,-49.94
232,-27.3,-49.94
232.1,-27.3,-49.94
232.2,-27.3,-49.94
232.3,-27.3,-51.71
232.4,-27.3,-51.71
232.5,-27.3,-51.71
232.6,-27.3,-51.71
232.7,-27.3,-51.71
232.8,-26.81,-51.71
232.9,-26.81,-51.71
233,-26.81,-51.71
233.1,-26.81,-51.71
233.2,-26.81,-52.1
233.3,-26.81,-52.1
233.4,-26.81,-52.1
233.5,-26.81,-52.1
233.6,-26.81,-52.1
233.7,-26.81,-52.1
233.8,-26.81,-52.1
233.9,-26.81,-52.1
234,-26.81,-52.1
234.1,-26.81,-52.1
234.2,-26.81,-52.1
234.3,-26.81,-53.35
234.4,-26.81,-53.35
234.5,-26.81,-53.35
234.6,-26.81,-53.35
234.7,-26.81,-53.35
234.8,-26.34,-53.35
234.9,-26.34,-53.35
235,-26.34,-53.35
235.1,-26.34,-53.35
235.2,-26.34,-53.35
235.3,-26.34,-52.24
235.4,-26.34,-52.24
235.5,-26.34,-52.24
235.6,-26.34,-52.24
235.7,-26.34,-52.24
235.8,-26.02,-52.24
235.9,-26.02,-52.24
236,-26.02,-52.24
236.1,-26.02,-52.24
236.2,-26.02,-52.24
236.3,-26.02,-52.24
236.4,-26.02,-52.24
236.5,-26.02,-52.24
236.6,-26.02,-52.24
236.7,-26.02,-52.24
236.8,-25.51,-52.24
236.9,-25.51,-52.24
237,-25.51,-52.24
237.1,-25.51,-52.24
237.2,-25.51,-52.24
237.3,-25.51,-52.95
237.4,-25.51,-52.95
237.5,-25.51,-52.95
237.6,-25.51,-52.95
237.7,-25.33,-52.95
237.8,-25.33,-52.6
237.9,-25.33,-52.6
238,-25.33,-52.6
238.1,-25.33,-52.6
238.2,-25.33,-52.6
238.3,-25.33,-52.6
238.4,-25.33,-52.6
238.5,-25.33,-52.6
238.6,-25.33,-52.6
238.7,-25.33,-52.6
238.8,-24.94,-52.6
238.9,-24.94,-52.6
239,-24.94,-51.83
239.1,-24.94,-51.83
239.2,-24.94,-51.83
239.3,-24.94,-51.83
239.4,-24.94,-51.83
239.5,-24.94,-51.83
239.6,-24.94,-51.83
239.7,-24.94,-51.83
239.8,-24.8,-51.83
239.9,-24.8,-52.69
240,-24.8,-52.69
240.1,-24.8,-52.69
240.2,-24.8,-52.69
240.3,-24.8,-52.69
240.4,-24.8,-52.69
240.5,-24.8,-52.69
240.6,-24.8,-52.69
240.7,-24.29,-52.69
240.8,-24.29,-52.69
240.9,-24.29,-52.69
241,-24.29,-52.69
241.1,-24.29,-52.69
241.2,-24.29,-51.66
241.3,-24.29,-51.66
241.4,-24.29,-51.66
241.5,-24.29,-51.66
241.6,-24.08,-51.66
241.7,-24.08,-51.66
241.8,-24.08,-51.66
241.9,-24.08,-51.66
242,-24.08,-51.66
242.1,-24.08,-51.1
242.2,-24.08,-51.1
242.3,-24.08,-51.1
242.4,-24.08,-51.1
242.5,-23.72,-51.1
242.6,-23.72,-51.1
242.7,-23.72,-51.1
242.8,-23.72,-51.1
242.9,-23.72,-50.33
243,-23.72,-50.33
243.1,-23.72,-50.33
243.2,-23.72,-50.33
243.3,-23.37,-50.33
243.4,-23.37,-50.33
243.5,-23.37,-50.33
243.6,-23.37,-50.33
243.7,-23.37,-50.33
243.8,-23.37,-50.33
243.9,-23.37,-50.33
244,-23.37,-50.33
244.1,-23.37,-50.83
244.2,-23.37,-50.83
244.3,-23.37,-50.83
244.4,-23.37,-50.83
244.5,-23.37,-50.83
244.6,-23.14,-50.83
244.7,-23.14,-50.83
244.8,-23.14,-50.83
244.9,-23.14,-50.83
245,-23.14,-50.83
245.1,-23.14,-50.83
245.2,-23.14,-50.83
245.3,-23.14,-50.46
245.4,-22.77,-50.46
245.5,-22.77,-50.46
245.6,-22.77,-50.46
245.7,-22.77,-50.46
245.8,-22.77,-50.46
245.9,-22.77,-50.46
246,-22.77,-50.46
246.1,-22.77,-50.46
246.2,-22.77,-51.08
246.3,-22.58,-51.08
246.4,-22.58,-51.08
246.5,-22.58,-51.08
246.6,-22.58,-51.08
246.7,-22.58,-51.08
246.8,-22.58,-51.08
246.9,-22.58,-51.08
247,-22.58,-51.08
247.1,-22.58,-51.08
247.2,-22.19,-51.08
247.3,-22.19,-51.08
247.4,-22.19,-49.47
247.5,-22.19,-49.47
247.6,-22.19,-49.47
247.7,-22.19,-49.47
247.8,-22.19,-49.47
247.9,-22.19,-49.47
248,-22.19,-49.47
248.1,-21.99,-49.47
248.2,-21.99,-49.47
248.3,-21.99,-49.47
248.4,-21.99,-49.2
248.5,-21.99,-49.2
248.6,-21.99,-49.2
248.7,-21.99,-49.2
248.8,-21.99,-49.2
248.9,-21.99,-49.2
249,-21.8,-49.2
249.1,-21.8,-49.2
249.2,-21.8,-49.2
249.3,-21.8,-49.2
249.4,-21.8,-49.2
249.5,-21.8,-49.63
249.6,-21.8,-49.63
249.7,-21.8,-49.63
249.8,-21.8,-49.63
249.9,-21.8,-49.63
250,-21.8,-49.63
250.1,-21.8,-49.63
250.2,-21.52,-49.63
250.3,-21.52,-49.63
250.4,-21.52,-49.16
250.5,-21.52,-49.16
250.6,-21.52,-49.16
250.7,-21.52,-49.16
250.8,-21.52,-49.16
250.9,-21.52,-49.16
251,-21.52,-49.16
251.1,-21.13,-49.16
251.2,-21.13,-49.16
251.3,-21.13,-49.16
251.4,-21.13,-49.16
251.5,-21.13,-47.66
251.6,-21.13,-47.66
251.7,-21.13,-47.66
251.8,-21.13,-47.66
251.9,-21.13,-47.66
252,-20.84,-47.66
252.1,-20.84,-47.66
252.2,-20.84,-47.66
252.3,-20.84,-47.66
252.4,-20.84,-47.66
252.5,-20.84,-47.63
252.6,-20.84,-47.63
252.7,-20.84,-47.63
252.8,-20.84,-47.63
252.9,-20.84,-47.63
253,-20.84,-47.63
253.1,-20.84,-47.63
253.2,-20.55,-47.63
253.3,-20.55,-47.63
253.4,-20.55,-47.63
253.5,-20.55,-47.44
253.6,-20.55,-47.44
253.7,-20.55,-47.44
253.8,-20.55,-47.44
253.9,-20.55,-47.44
254,-20.55,-47.44
254.1,-20.55,-47.44
254.2,-20.32,-47.44
254.3,-20.32,-47.44
254.4,-20.32,-47.44
254.5,-20.32,-46.69
254.6,-20.32,-46.69
254.7,-20.32,-46.69
254.8,-20.32,-46.69
254.9,-20.32,-46.69
255,-20.32,-46.69
255.1,-20.09,-46.69
255.2,-20.09,-46.69
255.3,-20.09,-46.69
255.4,-20.09,-46.69
255.5,-20.09,-46.3
255.6,-20.09,-46.3
255.7,-20.09,-46.3
255.8,-20.09,-46.3
255.9,-20.09,-46.3
256,-19.74,-46.3
256.1,-19.74,-46.3
256.2,-19.74,-46.3
256.3,-19.74,-46.3
256.4,-19.74,-46.3
256.5,-19.74,-45.48
256.6,-19.74,-45.48
256.7,-19.74,-45.48
256.8,-19.74,-45.48
256.9,-19.74,-45.48
257,-19.47,-45.48
257.1,-19.47,-45.48
257.2,-19.47,-45.48
257.3,-19.47,-45.48
257.4,-19.47,-45.48
257.5,-19.47,-45.49
257.6,-19.47,-45.49
257.7,-19.47,-45.49
257.8,-19.47,-45.49
257.9,-19.47,-45.49
258,-19.2,-45.49
258.1,-19.2,-45.49
258.2,-19.2,-45.49
258.3,-19.2,-45.49
258.4,-19.2,-45.49
258.5,-19.2,-45.49
258.6,-19.2,-43.6
258.7,-19.2,-43.6
258.8,-19.2,-43.6
258.9,-19.2,-43.6
259,-18.98,-43.6
259.1,-18.98,-43.6
259.2,-18.98,-43.6
259.3,-18.98,-43.6
259.4,-18.98,-43.6
259.5,-18.98,-43.6
259.6,-18.98,-43.6
259.7,-18.98,-43.59
259.8,-18.72,-43.59
259.9,-18.72,-43.59
260,-18.72,-43.59
260.1,-18.72,-43.59
260.2,-18.72,-43.59
260.3,-18.72,-43.59
260.4,-18.72,-43.59
260.5,-18.72,-43.59
260.6,-18.72,-43.59
260.7,-18.72,-42.85
260.8,-18.72,-42.85
260.9,-18.72,-42.85
261,-18.72,-42.85
261.1,-18.72,-42.85
261.2,-18.72,-42.85
261.3,-18.72,-42.85
261.4,-18.72,-42.85
261.5,-18.72,-42.85
261.6,-18.26,-42.85
261.7,-18.26,-42.85
261.8,-18.26,-42.85
261.9,-18.26,-42.19
262,-18.26,-42.19
262.1,-18.26,-42.19
262.2,-18.26,-42.19
262.3,-18.26,-42.19
262.4,-18.19,-42.19
262.5,-18.19,-42.19
262.6,-18.19,-42.19
262.7,-18.19,-42.01
262.8,-18.19,-42.01
262.9,-18.19,-42.01
263,-18.19,-42.01
263.1,-18.19,-42.01
263.2,-18.19,-42.01
263.3,-18.19,-42.01
263.4,-18.19,-42.01
263.5,-18.19,-42.01
263.6,-18.19,-42.01
263.7,-17.91,-42.01
263.8,-17.91,-42.01
263.9,-17.91,-42.01
264,-17.91,-41.24
264.1,-17.91,-41.24
264.2,-17.91,-41.24
264.3,-17.91,-41.24
264.4,-17.91,-41.24
264.5,-17.71,-41.24
264.6,-17.71,-41.24
264.7,-17.71,-41.24
264.8,-17.71,-40.91
264.9,-17.71,-40.91
265,-17.71,-40.91
265.1,-17.71,-40.91
265.2,-17.71,-40.91
265.3,-17.71,-40.91
265.4,-17.45,-40.91
265.5,-17.45,-40.91
265.6,-17.45,-40.91
265.7,-17.45,-40.91
265.8,-17.45,-40.91
265.9,-17.45,-40.91
266,-17.45,-40.91
266.1,-17.45,-40.91
266.2,-17.19,-40.91
266.3,-17.19,-40.91
266.4,-17.19,-40.91
266.5,-17.19,-40.91
266.6,-17.19,-40.91
266.7,-17.19,-40.91
266.8,-17.19,-40.91
266.9,-17.19,-40.91
267,-17.19,-40.33
267.1,-16.9,-40.33
267.2,-16.9,-40.33
267.3,-16.9,-40.33
267.4,-16.9,-40.33
267.5,-16.9,-40.33
267.6,-16.9,-39.8
267.7,-16.9,-39.8
267.8,-16.9,-39.8
267.9,-16.9,-39.8
268,-16.9,-39.8
268.1,-16.9,-39.8
268.2,-16.9,-39.8
268.3,-16.64,-39.8
268.4,-16.64,-39.8
268.5,-16.64,-39.8
268.6,-16.64,-39.31
268.7,-16.64,-39.31
268.8,-16.64,-39.31
268.9,-16.64,-39.31
269,-16.64,-39.31
269.1,-16.41,-39.31
269.2,-16.41,-39.31
269.3,-16.41,-39.31
269.4,-16.41,-39.31
269.5,-16.41,-39.31
269.6,-16.41,-39.31
269.7,-16.41,-38.91
269.8,-16.41,-38.91
269.9,-16.41,-38.91
270,-16.41,-38.91
270.1,-16.41,-38.91
270.2,-16.41,-38.91
270.3,-16.41,-38.91
270.4,-16.09,-38.91
270.5,-16.09,-38.91
270.6,-16.09,-38.91
270.7,-16.09,-38.91
270.8,-16.09,-38.91
270.9,-16.09,-38.91
271,-16.09,-38.91
271.1,-16.09,-38.91
271.2,-16.02,-38.91
271.3,-16.02,-38.91
271.4,-16.02,-38.91
271.5,-16.02,-38.91
271.6,-16.02,-38.91
271.7,-16.02,-38.91
271.8,-16.02,-38.31
271.9,-16.02,-38.31
272,-16.02,-38.31
272.1,-16.02,-38.31
272.2,-15.77,-38.31
272.3,-15.77,-38.31
272.4,-15.77,-38.31
272.5,-15.77,-38.31
272.6,-15.77,-38.31
272.7,-15.77,-37.8
272.8,-15.77,-37.8
272.9,-15.77,-37.8
273,-15.77,-37.8
273.1,-15.58,-37.8
273.2,-15.58,-37.8
273.3,-15.58,-37.8
273.4,-15.58,-37.8
273.5,-15.58,-37.8
273.6,-15.58,-37.8
273.7,-15.58,-37.55
273.8,-15.58,-37.55
273.9,-15.58,-37.55
274,-15.58,-37.55
274.1,-15.35,-37.55
274.2,-15.35,-37.55
274.3,-15.35,-37.55
274.4,-15.35,-37.55
274.5,-15.35,-37.55
274.6,-15.35,-37.55
274.7,-15.35,-36.8
274.8,-15.35,-36.8
274.9,-15.35,-36.8
275,-15.1,-36.8
275.1,-15.1,-36.8
275.2,-15.1,-36.8
275.3,-15.1,-36.8
275.4,-15.1,-36.8
275.5,-15.1,-36.8
275.6,-15.1,-36.8
275.7,-15.1,-36.83
275.8,-15.1,-36.83
275.9,-15.1,-36.83
276,-15.1,-36.83
276.1,-14.82,-36.83
276.2,-14.82,-36.83
276.3,-14.82,-36.83
276.4,-14.82,-36.83
276.5,-14.82,-36.83
276.6,-14.82,-36.83
276.7,-14.82,-36.16
276.8,-14.82,-36.16
276.9,-14.82,-36.16
277,-14.82,-36.16
277.1,-14.6,-36.16
277.2,-14.6,-36.16
277.3,-14.6,-36.16
277.4,-14.6,-36.16
277.5,-14.6,-36.16
277.6,-14.6,-36.16
277.7,-14.6,-36.16
277.8,-14.6,-36.12
277.9,-14.6,-36.12
278,-14.38,-36.12
278.1,-14.38,-36.12
278.2,-14.38,-36.12
278.3,-14.38,-36.12
278.4,-14.38,-36.12
278.5,-14.38,-36.12
278.6,-14.38,-36.12
278.7,-14.38,-36.12
278.8,-14.38,-35.52
278.9,-14.38,-35.52
279,-14.12,-35.52
279.1,-14.12,-35.52
279.2,-14.12,-35.52
279.3,-14.12,-35.52
279.4,-14.12,-35.52
279.5,-14.12,-35.52
279.6,-14.12,-35.52
279.7,-14.12,-35.52
279.8,-14.12,-35.52
279.9,-13.76,-35.34
280,-13.76,-35.34
280.1,-13.76,-35.34
280.2,-13.76,-35.34
280.3,-13.76,-35.34
280.4,-13.76,-35.34
280.5,-13.76,-35.34
280.6,-13.76,-35.34
280.7,-13.76,-35.34
280.8,-13.76,-35.34
280.9,-13.76,-35.34
281,-13.76,-35.34
281.1,-13.76,-35.34
281.2,-13.76,-35.02
281.3,-13.76,-35.02
281.4,-13.69,-35.02
281.5,-13.69,-35.02
281.6,-13.69,-35.02
281.7,-13.69,-35.02
281.8,-13.69,-35.02
281.9,-13.69,-35.02
282,-13.69,-35.02
282.1,-13.69,-35.02
282.2,-13.69,-35.02
282.3,-13.48,-34.66
282.4,-13.48,-34.66
282.5,-13.48,-34.66
282.6,-13.48,-34.66
282.7,-13.48,-34.66
282.8,-13.48,-34.66
282.9,-13.48,-34.66
283,-13.48,-34.66
283.1,-13.48,-34.66
283.2,-13.48,-34.46
283.3,-13.24,-34.46
283.4,-13.24,-34.46
283.5,-13.24,-34.46
283.6,-13.24,-34.46
283.7,-13.24,-34.46
283.8,-13.24,-34.46
283.9,-13.24,-34.46
284,-12.73,-34.46
284.1,-12.73,-34.46
284.2,-12.73,-34.46
284.3,-12.73,-34.46
284.4,-12.73,-34.15
284.5,-12.73,-34.15
284.6,-12.73,-34.15
284.7,-12.73,-34.15
284.8,-12.73,-34.15
284.9,-12.73,-34.15
285,-12.73,-34.15
285.1,-12.73,-34.15
285.2,-12.73,-34.15
285.3,-12.73,-34.15
285.4,-12.73,-34.15
285.5,-12.73,-33.91
285.6,-12.73,-33.91
285.7,-12.73,-33.91
285.8,-12.73,-33.91
285.9,-12.73,-33.91
286,-12.55,-33.91
286.1,-12.55,-33.91
286.2,-12.55,-33.91
286.3,-12.55,-33.91
286.4,-12.55,-33.91
286.5,-12.55,-33.91
286.6,-12.55,-33.41
286.7,-12.55,-33.41
286.8,-12.55,-33.41
286.9,-12.55,-33.41
287,-12.3,-33.41
287.1,-12.3,-33.41
287.2,-12.3,-33.41
287.3,-12.3,-33.41
287.4,-12.3,-33.41
287.5,-12.3,-33.41
287.6,-12.3,-33.32
287.7,-12.3,-33.32
287.8,-12.3,-33.32
287.9,-12.3,-33.32
288,-12.07,-33.32
288.1,-12.07,-33.32
288.2,-12.07,-33.32
288.3,-12.07,-33.32
288.4,-12.07,-33.32
288.5,-12.07,-33.32
288.6,-12.07,-33.32
288.7,-12.07,-32.98
288.8,-12.07,-32.98
288.9,-11.83,-32.98
289,-11.83,-32.98
289.1,-11.83,-32.98
289.2,-11.83,-32.98
289.3,-11.83,-32.98
289.4,-11.83,-32.98
289.5,-11.83,-32.98
289.6,-11.83,-32.98
289.7,-11.83,-32.98
289.8,-11.6,-32.57
289.9,-11.6,-32.57
290,-11.6,-32.57
290.1,-11.6,-32.57
290.2,-11.6,-32.57
290.3,-11.6,-32.57
290.4,-11.6,-32.57
290.5,-11.6,-32.57
290.6,-11.6,-32.57
290.7,-11.6,-32.45
290.8,-11.6,-32.45
290.9,-11.46,-32.45
291,-11.46,-32.45
291.1,-11.46,-32.45
291.2,-11.46,-32.45
291.3,-11.46,-32.45
291.4,-11.46,-32.45
291.5,-11.46,-32.45
291.6,-11.46,-32.45
291.7,-11.46,-32.45
291.8,-11.46,-32.15
291.9,-11.27,-32.15
292,-11.27,-32.15
292.1,-11.27,-32.15
292.2,-11.27,-32.15
292.3,-11.27,-32.15
292.4,-11.27,-32.15
292.5,-11.27,-32.15
292.6,-11.27,-32.15
292.7,-11.27,-32.15
292.8,-10.85,-32.15
292.9,-10.85,-31.8
293,-10.85,-31.8
293.1,-10.85,-31.8
293.2,-10.85,-31.8
293.3,-10.85,-31.8
293.4,-10.85,-31.8
293.5,-10.85,-31.8
293.6,-10.85,-31.8
293.7,-10.74,-31.8
293.8,-10.74,-31.8
293.9,-10.74,-31.8
294,-10.74,-31.63
294.1,-10.74,-31.63
294.2,-10.74,-31.63
294.3,-10.74,-31.63
294.4,-10.74,-31.63
294.5,-10.74,-31.63
294.6,-10.34,-31.63
294.7,-10.34,-31.63
294.8,-10.34,-31.63
294.9,-10.34,-31.63
295,-10.34,-31.12
295.1,-10.34,-31.12
295.2,-10.34,-31.12
295.3,-10.34,-31.12
295.4,-10.34,-31.12
295.5,-10.3,-31.12
295.6,-10.3,-31.12
295.7,-10.3,-31.12
295.8,-10.3,-31.12
295.9,-10.3,-31.12
296,-10.3,-31.12
296.1,-10.3,-30.88
296.2,-10.3,-30.88
296.3,-10.3,-30.88
296.4,-10.3,-30.88
296.5,-10.3,-30.88
296.6,-10.3,-30.88
296.7,-10.3,-30.88
296.8,-10.05,-30.88
296.9,-10.05,-30.88
297,-10.05,-30.88
297.1,-10.05,-30.88
297.2,-10.05,-30.7
297.3,-10.05,-30.7
297.4,-10.05,-30.7
297.5,-10.05,-30.7
297.6,-9.74,-30.7
297.7,-9.74,-30.7
297.8,-9.74,-30.7
297.9,-9.74,-30.7
298,-9.74,-30.7
298.1,-9.74,-30.7
298.2,-9.74,-30.7
298.3,-9.74,-30.7
298.4,-9.47,-30.7
298.5,-9.47,-30.33
298.6,-9.47,-30.33
298.7,-9.47,-30.33
298.8,-9.47,-30.33
298.9,-9.47,-30.33
299,-9.47,-30.33
299.1,-9.47,-30.33
299.2,-9.47,-30.33
299.3,-9.24,-30.33
299.4,-9.24,-30.33
299.5,-9.24,-30.33
299.6,-9.24,-30.33
299.7,-9.24,-30.33
299.8,-9.24,-30.33
299.9,-9.24,-30.33
300,-9.24,-30.33
300.1,-9.24,-30.33
300.2,-8.98,-30.33
300.3,-8.98,-30.33
300.4,-8.98,-30.33
300.5,-8.98,-30.33
300.6,-8.98,-30.01
300.7,-8.98,-30.01
300.8,-8.98,-30.01
300.9,-8.98,-30.01
301,-8.98,-30.01
301.1,-8.41,-29.77
301.2,-8.41,-29.77
301.3,-8.41,-29.77
301.4,-8.41,-29.77
301.5,-8.41,-29.77
301.6,-8.41,-29.77
301.7,-8.41,-29.77
301.8,-8.41,-29.77
301.9,-8.41,-29.77
302,-8.41,-29.77
302.1,-8.41,-29.35
302.2,-8.41,-29.35
302.3,-8.41,-29.35
302.4,-8.41,-29.35
302.5,-8.41,-29.35
302.6,-8.41,-29.35
302.7,-8.41,-29.35
302.8,-8.41,-29.35
302.9,-8.41,-29.35
303,-8.41,-29.35
303.1,-8.3,-29.35
303.2,-8.3,-29.34
303.3,-8.3,-29.34
303.4,-8.3,-29.34
303.5,-8.3,-29.34
303.6,-8.3,-29.34
303.7,-8.3,-29.34
303.8,-8.3,-29.34
303.9,-8.3,-29.34
304,-8.3,-29.34
304.1,-8.05,-29.34
304.2,-8.05,-29.34
304.3,-8.05,-29.34
304.4,-8.05,-29.34
304.5,-8.05,-29.34
304.6,-8.05,-29.34
304.7,-8.05,-29.34
304.8,-8.05,-29.34
304.9,-8.05,-29.34
305,-8.05,-29.34
305.1,-7.73,-29.34
305.2,-7.73,-29.34
305.3,-7.73,-28.85
305.4,-7.73,-28.85
305.5,-7.73,-28.85
305.6,-7.73,-28.85
305.7,-7.73,-28.85
305.8,-7.73,-28.85
305.9,-7.73,-28.85
306,-7.73,-28.85
306.1,-7.47,-28.58
306.2,-7.47,-28.58
306.3,-7.19,-28.58
306.4,-7.19,-28.58
306.5,-7.19,-28.58
306.6,-7.19,-28.58
306.7,-7.19,-28.58
306.8,-7.19,-28.58
306.9,-7.19,-28.58
307,-7.19,-28.58
307.1,-7.19,-28.36
307.2,-7.19,-28.36
307.3,-7.19,-28.36
307.4,-7.19,-28.36
307.5,-7.19,-28.36
307.6,-7.19,-28.36
307.7,-7.19,-28.36
307.8,-7.19,-28.36
307.9,-7.19,-28.36
308,-7.19,-28.36
308.1,-7.19,-28.09
308.2,-6.96,-28.09
308.3,-6.96,-28.09
308.4,-6.96,-28.09
308.5,-6.96,-28.09
308.6,-6.96,-28.09
308.7,-6.96,-28.09
308.8,-6.96,-28.09
308.9,-6.96,-28.09
309,-6.96,-28.09
309.1,-6.73,-28.09
309.2,-6.73,-28.09
309.3,-6.73,-27.86
309.4,-6.73,-27.86
309.5,-6.73,-27.86
309.6,-6.73,-27.86
309.7,-6.73,-27.86
309.8,-6.73,-27.86
309.9,-6.73,-27.86
310,-6.73,-27.86
310.1,-6.44,-27.86
310.2,-6.44,-27.58
310.3,-6.44,-27.58
310.4,-6.44,-27.58
310.5,-6.44,-27.58
310.6,-6.44,-27.58
310.7,-6.44,-27.58
310.8,-6.44,-27.58
310.9,-6.44,-27.58
311,-6.44,-27.58
311.1,-6.44,-27.58
311.2,-6.18,-27.58
311.3,-6.18,-27.58
311.4,-6.18,-27.2
311.5,-6.18,-27.2
311.6,-6.18,-27.2
311.7,-6.18,-27.2
311.8,-6.18,-27.2
311.9,-6.18,-27.2
312,-6.18,-27.2
312.1,-5.93,-27.2
312.2,-5.93,-27.2
312.3,-5.93,-27.2
312.4,-5.93,-27.2
312.5,-5.93,-27.2
312.6,-5.93,-27.2
312.7,-5.93,-27.19
312.8,-5.93,-27.19
312.9,-5.93,-27.19
313,-5.93,-27.19
313.1,-5.64,-27.19
313.2,-5.64,-27.19
313.3,-5.64,-27.19
313.4,-5.64,-27.19
313.5,-5.64,-26.84
313.6,-5.64,-26.84
313.7,-5.64,-26.84
313.8,-5.64,-26.84
313.9,-5.64,-26.84
314,-5.64,-26.84
314.1,-5.37,-26.84
314.2,-5.37,-26.84
314.3,-5.37,-26.84
314.4,-5.37,-26.84
314.5,-5.37,-26.84
314.6,-5.37,-26.84
314.7,-5.37,-26.84
314.8,-5.37,-26.62
314.9,-5.37,-26.62
315,-5.37,-26.62
315.1,-5.29,-26.62
315.2,-5.29,-26.62
315.3,-5.29,-26.62
315.4,-5.29,-26.62
315.5,-5.29,-26.62
315.6,-5.29,-26.62
315.7,-5.29,-26.62
315.8,-5.29,-26.62
315.9,-5.29,-26.62
316,-5.29,-26.62
316.1,-5.08,-26.4
316.2,-5.08,-26.4
316.3,-5.08,-26.4
316.4,-5.08,-26.4
316.5,-5.08,-26.4
316.6,-5.08,-26.4
316.7,-5.08,-26.4
316.8,-5.08,-26.4
316.9,-5.08,-26.4
317,-5.08,-26.37
317.1,-4.88,-26.37
317.2,-4.88,-26.37
317.3,-4.88,-26.37
317.4,-4.88,-26.37
317.5,-4.88,-26.37
317.6,-4.88,-26.37
317.7,-4.88,-26.37
317.8,-4.88,-26.37
317.9,-4.88,-26.37
318,-4.88,-26.37
318.1,-4.62,-26.11
318.2,-4.62,-26.11
318.3,-4.62,-26.11
318.4,-4.62,-26.11
318.5,-4.62,-26.11
318.6,-4.62,-26.11
318.7,-4.62,-26.11
318.8,-4.62,-26.11
318.9,-4.62,-26.11
319,-4.62,-26.11
319.1,-4.35,-26.11
319.2,-4.35,-25.86
319.3,-4.35,-25.86
319.4,-4.35,-25.86
319.5,-4.35,-25.86
319.6,-4.35,-25.86
319.7,-4.24,-25.86
319.8,-4.24,-25.86
319.9,-4.24,-25.86
320,-4.24,-25.86
320.1,-4.24,-25.86
320.2,-4.24,-25.86
320.3,-4.24,-25.86
320.4,-4.24,-25.86
320.5,-4.24,-25.86
320.6,-4.02,-25.86
320.7,-4.02,-25.86
320.8,-4.02,-25.86
320.9,-4.02,-25.86
321,-4.02,-25.86
321.1,-4.02,-25.86
321.2,-4.02,-25.61
321.3,-4.02,-25.61
321.4,-4.02,-25.61
321.5,-4.02,-25.61
321.6,-3.99,-25.61
321.7,-3.99,-25.61
321.8,-3.99,-25.61
321.9,-3.99,-25.61
322,-3.99,-25.61
322.1,-3.47,-25.47
322.2,-3.47,-25.47
322.3,-3.47,-25.47
322.4,-3.47,-25.47
322.5,-3.47,-25.47
322.6,-3.47,-25.47
322.7,-3.47,-25.47
322.8,-3.47,-25.47
322.9,-3.47,-25.47
323,-3.47,-25.47
323.1,-3.47,-25.47
323.2,-3.47,-25.26
323.3,-3.47,-25.26
323.4,-3.47,-25.26
323.5,-3.47,-25.26
323.6,-3.47,-25.26
323.7,-3.47,-25.26
323.8,-3.47,-25.26
323.9,-3.47,-25.26
324,-3.47,-25.26
324.1,-3.47,-25.26
324.2,-3.38,-25.11
324.3,-3.38,-25.11
324.4,-3.38,-25.11
324.5,-3.38,-25.11
324.6,-3.38,-25.11
324.7,-3.38,-25.11
324.8,-3.38,-25.11
324.9,-3.38,-25.11
325,-3.38,-25.11
325.1,-3.18,-25.11
325.2,-3.18,-25.06
325.3,-3.18,-25.06
325.4,-3.18,-25.06
325.5,-3.18,-25.06
325.6,-3.18,-25.06
325.7,-3.18,-25.06
325.8,-3.18,-25.06
325.9,-3.18,-25.06
326,-3.18,-25.06
326.1,-2.88,-25.06
326.2,-2.88,-25.06
326.3,-2.88,-25.06
326.4,-2.88,-25.06
326.5,-2.88,-25.06
326.6,-2.88,-25.06
326.7,-2.88,-25.06
326.8,-2.88,-25.06
326.9,-2.88,-25.06
327,-2.88,-25.06
327.1,-2.83,-25.06
327.2,-2.83,-24.81
327.3,-2.83,-24.81
327.4,-2.83,-24.81
327.5,-2.83,-24.81
327.6,-2.83,-24.81
327.7,-2.83,-24.81
327.8,-2.83,-24.81
327.9,-2.83,-24.81
328,-2.62,-24.81
328.1,-2.62,-24.63
328.2,-2.62,-24.63
328.3,-2.62,-24.63
328.4,-2.62,-24.63
328.5,-2.62,-24.63
328.6,-2.62,-24.63
328.7,-2.62,-24.63
328.8,-2.62,-24.63
328.9,-2.6,-24.63
329,-2.6,-24.63
329.1,-2.6,-24.63
329.2,-2.6,-24.63
329.3,-2.6,-24.63
329.4,-2.6,-24.63
329.5,-2.6,-24.63
329.6,-2.6,-24.63
329.7,-2.32,-24.63
329.8,-2.32,-24.63
329.9,-2.32,-24.63
330,-2.32,-24.63
330.1,-2.32,-24.63
330.2,-2.32,-24.49
330.3,-2.32,-24.49
330.4,-2.32,-24.49
330.5,-2.32,-24.49
330.6,-2.27,-24.49
330.7,-2.27,-24.49
330.8,-2.27,-24.49
330.9,-2.27,-24.49
331,-2.27,-24.49
331.1,-2.27,-24.49
331.2,-2.27,-24.49
331.3,-2.27,-24.45
331.4,-2.27,-24.45
331.5,-2.03,-24.45
331.6,-2.03,-24.45
331.7,-2.03,-24.45
331.8,-2.03,-24.45
331.9,-2.03,-24.45
332,-2.03,-24.45
332.1,-2.03,-24.45
332.2,-2.03,-24.45
332.3,-2.03,-24.26
332.4,-1.98,-24.26
332.5,-1.98,-24.26
332.6,-1.98,-24.26
332.7,-1.98,-24.26
332.8,-1.98,-24.26
332.9,-1.98,-24.26
333,-1.98,-24.26
333.1,-1.98,-24.26
333.2,-1.98,-24.26
333.3,-1.78,-24.28
333.4,-1.78,-24.28
333.5,-1.78,-24.28
333.6,-1.78,-24.28
333.7,-1.78,-24.28
333.8,-1.78,-24.28
333.9,-1.78,-24.28
334,-1.78,-24.28
334.1,-1.78,-24.28
334.2,-1.78,-24.28
334.3,-1.56,-24.28
334.4,-1.56,-24.13
334.5,-1.56,-24.13
334.6,-1.56,-24.13
334.7,-1.56,-24.13
334.8,-1.56,-24.13
334.9,-1.56,-24.13
335,-1.56,-24.13
335.1,-1.56,-24.13
335.2,-1.44,-24.13
335.3,-1.44,-24.12
335.4,-1.44,-24.12
335.5,-1.44,-24.12
335.6,-1.44,-24.12
335.7,-1.44,-24.12
335.8,-1.44,-24.12
335.9,-1.44,-24.12
336,-1.44,-24.12
336.1,-1.44,-24.12
336.2,-1.44,-24.12
336.3,-1.44,-24.12
336.4,-1.44,-24.12
336.5,-1.44,-24.1
336.6,-1.44,-24.1
336.7,-1.44,-24.1
336.8,-1.44,-24.1
336.9,-1.44,-24.1
337,-1.24,-24.1
337.1,-1.24,-24.1
337.2,-1.24,-24.1
337.3,-1.24,-24.1
337.4,-1.24,-24.1
337.5,-1.24,-24.1
337.6,-1.24,-24.1
337.7,-1.24,-24.08
337.8,-1.24,-24.08
337.9,-1.24,-24.08
338,-1.24,-24.08
338.1,-1.24,-24.08
338.2,-1.24,-24.08
338.3,-1.24,-24.08
338.4,-1.24,-24.08
338.5,-1.24,-24.08
338.6,-1.24,-24.08
338.7,-1.24,-24.08
338.8,-1.24,-24.08
338.9,-1.05,-24.06
339,-1.05,-24.06
339.1,-1.05,-24.06
339.2,-1.05,-24.06
339.3,-1.05,-24.06
339.4,-1.05,-24.06
339.5,-1.05,-24.06
339.6,-1.05,-24.06
339.7,-1.05,-24.06
339.8,-0.81,-24.05
339.9,-0.81,-24.05
340,-0.81,-24.05
340.1,-0.81,-24.05
340.2,-0.81,-24.05
340.3,-0.81,-24.05
340.4,-0.81,-24.05
340.5,-0.81,-24.05
340.6,-0.81,-24.05
340.7,-0.77,-24.05
340.8,-0.77,-24.05
340.9,-0.77,-24.05
341,-0.77,-24.04
341.1,-0.77,-24.04
341.2,-0.77,-24.04
341.3,-0.77,-24.04
341.4,-0.77,-24.04
341.5,-0.77,-24.04
341.6,-0.74,-24.04
341.7,-0.74,-24.04
341.8,-0.74,-24.04
341.9,-0.74,-24.04
342,-0.74,-24.04
342.1,-0.74,-24.04
342.2,-0.74,-24.04
342.3,-0.74,-24.04
342.4,-0.74,-24.04
342.5,-0.54,-24.04
342.6,-0.54,-24.04
342.7,-0.54,-24.04
342.8,-0.54,-24.04
342.9,-0.54,-24.04
343,-0.54,-24.04
343.1,-0.54,-24.04
343.2,-0.54,-24.04
343.3,-0.54,-24.03
343.4,-0.5,-24.03
343.5,-0.5,-24.03
343.6,-0.5,-24.03
343.7,-0.5,-24.03
343.8,-0.5,-24.03
343.9,-0.5,-24.03
344,-0.5,-24.02
344.1,-0.5,-24.02
344.2,-0.5,-24.02
344.3,-0.47,-24.02
344.4,-0.47,-24.02
344.5,-0.47,-24.02
344.6,-0.47,-24.02
344.7,-0.47,-24.02
344.8,-0.47,-24.02
344.9,-0.47,-24.02
345,-0.47,-24.02
345.1,-0.47,-24.02
345.2,-0.27,-24.02
345.3,-0.27,-24.02
345.4,-0.27,-24.02
345.5,-0.27,-24.02
345.6,-0.27,-24.02
345.7,-0.27,-24.02
345.8,-0.27,-24.02
345.9,-0.27,-24.02
346,-0.27,-24.02
346.1,-0.27,-24.02
346.2,-0.24,-24.02
346.3,-0.24,-24.02
346.4,-0.24,-24.02
346.5,-0.24,-24.02
346.6,-0.24,-24.02
346.7,-0.24,-24.02
346.8,-0.24,-24.02
346.9,-0.24,-24.02
347,-0.24,-24.02
347.1,-0.24,-24.02
347.2,-0.23,-24.02
347.3,-0.23,-24.04
347.4,-0.23,-24.04
347.5,-0.23,-24.04
347.6,-0.23,-24.04
347.7,-0.23,-24.04
347.8,-0.23,-24.04
347.9,-0.23,-24.04
348,-0.05,-24.04
348.1,-0.05,-24.04
348.2,-0.05,-24.04
348.3,-0.05,-24.05
348.4,-0.05,-24.05
348.5,-0.05,-24.05
348.6,-0.05,-24.05
348.7,-0.05,-24.05
348.8,-0.05,-24.05
348.9,-0.05,-24.05
349,-0.05,-24.05
349.1,-0.05,-24.05
349.2,-0.05,-24.05
349.3,-0.05,-24.07
349.4,-0.05,-24.07
349.5,-0.05,-24.07
349.6,-0.05,-24.07
349.7,-0.03,-24.07
349.8,-0.03,-24.07
349.9,-0.03,-24.07
350,-0.03,-24.07
350.1,-0.03,-24.07
350.2,-0.03,-24.07
350.3,-0.03,-24.2
350.4,-0.03,-24.2
350.5,-0.01,-24.2
350.6,-0.01,-24.2
350.7,-0.01,-24.2
350.8,-0.01,-24.2
350.9,-0.01,-24.2
351,-0.01,-24.2
351.1,-0.01,-24.2
351.2,-0.01,-24.2
351.3,-0.01,-24.2
351.4,0,-24.25
351.5,0,-24.25
351.6,0,-24.25
351.7,0,-24.25
351.8,0,-24.25
351.9,0,-24.25
352,0,-24.25
352.1,0,-24.25
352.2,0,-24.25
352.3,0,-24.25
352.4,0,-24.44
352.5,0,-24.44
352.6,0,-24.44
352.7,0,-24.44
352.8,0,-24.44
352.9,0,-24.44
353,0,-24.44
353.1,0,-24.44
353.2,0,-24.44
353.3,-0.01,-24.44
353.4,-0.01,-24.46
353.5,-0.01,-24.46
353.6,-0.01,-24.46
353.7,-0.01,-24.46
353.8,-0.01,-24.46
353.9,-0.01,-24.46
354,-0.01,-24.46
354.1,-0.02,-24.46
354.2,-0.02,-24.46
354.3,-0.02,-24.46
354.4,-0.02,-24.66
354.5,-0.02,-24.66
354.6,-0.02,-24.66
354.7,-0.02,-24.66
354.8,-0.02,-24.66
354.9,-0.02,-24.66
355,-0.02,-24.66
355.1,-0.02,-24.66
355.2,-0.02,-24.66
355.3,-0.02,-24.66
355.4,-0.02,-24.66
355.5,-0.02,-24.66
355.6,-0.02,-24.65
355.7,-0.02,-24.65
355.8,-0.02,-24.65
355.9,-0.02,-24.65
356,-0.02,-24.65
356.1,-0.02,-24.65
356.2,-0.02,-24.65
356.3,-0.02,-24.65
356.4,-0.02,-24.65
356.5,-0.02,-24.65
356.6,-0.02,-24.65
356.7,-0.02,-24.65
356.8,-0.02,-24.7
356.9,-0.02,-24.7
357,-0.02,-24.7
357.1,-0.02,-24.7
357.2,-0.02,-24.7
357.3,-0.02,-24.7
357.4,-0.02,-24.7
357.5,-0.02,-24.7
357.6,-0.02,-24.7
357.7,-0.02,-24.7
357.8,-0.02,-24.7
357.9,-0.02,-24.7
358,-0.02,-25.05
358.1,-0.02,-25.05
358.2,-0.02,-25.05
358.3,-0.02,-25.05
358.4,-0.02,-25.05
358.5,-0.02,-25.05
358.6,-0.02,-25.05
358.7,-0.03,-25.05
358.8,-0.03,-25.05
358.9,-0.03,-25.05
359,-0.03,-25.05
359.1,-0.03,-25.05
359.2,-0.03,-25.05
359.3,-0.03,-25.12
359.4,-0.03,-25.12
359.5,-0.03,-25.12
359.6,-0.03,-25.12
359.7,-0.03,-25.12
359.8,-0.03,-25.12
359.9,-0.03,-25.04
