Theta [deg],dB(GainTheta) [] - Freq='0.6GHz' L3='5mm' Ls='1.63mm' Phi='0deg',dB(GainTheta) [] - Freq='0.6GHz' L3='5mm' Ls='1.63mm' Phi='90.0000000000002deg'
0,-0.04,-27.35
0.1,-0.01,-27.28
0.2,-0.01,-27.29
0.3,-0.01,-27.29
0.4,-0.01,-27.29
0.5,-0.01,-27.29
0.6,-0.01,-27.29
0.7,-0.01,-27.3
0.8,-0.02,-27.3
0.9,-0.02,-27.3
1,-0.02,-27.3
1.1,-0.02,-27.3
1.2,-0.02,-27.3
1.3,-0.02,-27.3
1.4,-0.02,-27.3
1.5,-0.02,-27.3
1.6,-0.02,-27.3
1.7,-0.02,-27.32
1.8,-0.02,-27.32
1.9,-0.02,-27.32
2,-0.02,-27.32
2.1,-0.02,-27.32
2.2,-0.02,-27.32
2.3,-0.02,-27.32
2.4,-0.02,-27.32
2.5,-0.02,-27.32
2.6,-0.02,-27.46
2.7,-0.02,-27.46
2.8,-0.02,-27.46
2.9,-0.31,-27.46
3,-0.31,-27.46
3.1,-0.31,-27.46
3.2,-0.31,-27.46
3.3,-0.31,-27.46
3.4,-0.31,-27.46
3.5,-0.31,-27.46
3.6,-0.31,-27.65
3.7,-0.31,-27.65
3.8,-0.34,-27.65
3.9,-0.34,-27.65
4,-0.34,-27.65
4.1,-0.34,-27.65
4.2,-0.34,-27.65
4.3,-0.34,-27.65
4.4,-0.34,-27.65
4.5,-0.34,-27.65
4.6,-0.34,-27.71
4.7,-0.34,-27.71
4.8,-0.54,-27.71
4.9,-0.54,-27.71
5,-0.54,-27.71
5.1,-0.54,-27.71
5.2,-0.54,-27.71
5.3,-0.54,-27.71
5.4,-0.54,-27.71
5.5,-0.54,-27.71
5.6,-0.54,-27.86
5.7,-0.54,-27.86
5.8,-0.54,-27.86
5.9,-0.54,-27.86
6,-0.54,-27.86
6.1,-0.54,-27.86
6.2,-0.54,-27.86
6.3,-0.54,-27.86
6.4,-0.54,-27.9
6.5,-0.54,-27.9
6.6,-0.54,-27.9
6.7,-0.54,-27.9
6.8,-0.54,-27.9
6.9,-0.54,-27.9
7,-0.54,-27.9
7.1,-0.54,-27.9
7.2,-0.54,-27.9
7.3,-0.76,-27.95
7.4,-0.76,-27.95
7.5,-0.76,-27.95
7.6,-0.76,-28.12
7.7,-0.76,-28.12
7.8,-0.76,-28.12
7.9,-0.93,-28.12
8,-0.93,-28.12
8.1,-0.93,-28.12
8.2,-0.93,-28.12
8.3,-0.93,-28.12
8.4,-0.93,-28.12
8.5,-0.93,-28.12
8.6,-0.93,-28.12
8.7,-0.93,-28.12
8.8,-0.93,-28.12
8.9,-0.93,-28.12
9,-1.06,-28.12
9.1,-1.06,-28.12
9.2,-1.06,-28.12
9.3,-1.06,-28.12
9.4,-1.06,-28.12
9.5,-1.06,-28.12
9.6,-1.06,-28.35
9.7,-1.06,-28.35
9.8,-1.06,-28.35
9.9,-1.06,-28.35
10,-1.06,-28.35
10.1,-1.06,-28.35
10.2,-1.06,-28.35
10.3,-1.06,-28.35
10.4,-1.06,-28.35
10.5,-1.06,-28.35
10.6,-1.06,-28.38
10.7,-1.06,-28.38
10.8,-1.06,-28.38
10.9,-1.06,-28.38
11,-1.06,-28.38
11.1,-1.06,-28.38
11.2,-1.06,-28.38
11.3,-1.06,-28.38
11.4,-1.06,-28.38
11.5,-1.06,-28.56
11.6,-1.06,-28.56
11.7,-1.06,-28.56
11.8,-1.35,-28.56
11.9,-1.35,-28.56
12,-1.35,-28.56
12.1,-1.35,-28.56
12.2,-1.35,-28.56
12.3,-1.35,-28.56
12.4,-1.68,-28.56
12.5,-1.68,-28.74
12.6,-1.68,-28.74
12.7,-1.68,-28.74
12.8,-1.68,-28.74
12.9,-1.68,-28.74
13,-1.68,-28.74
13.1,-1.68,-28.74
13.2,-1.68,-28.74
13.3,-1.68,-28.74
13.4,-1.68,-28.74
13.5,-1.68,-28.74
13.6,-1.68,-28.74
13.7,-1.74,-28.74
13.8,-1.74,-28.74
13.9,-1.74,-28.87
14,-1.74,-28.87
14.1,-1.74,-28.87
14.2,-1.74,-28.87
14.3,-1.74,-28.87
14.4,-1.74,-28.87
14.5,-1.74,-28.87
14.6,-1.74,-28.87
14.7,-1.74,-28.87
14.8,-1.74,-29.15
14.9,-1.74,-29.15
15,-1.74,-29.15
15.1,-1.74,-29.15
15.2,-1.74,-29.15
15.3,-1.74,-29.15
15.4,-1.74,-29.15
15.5,-1.74,-29.15
15.6,-1.74,-29.47
15.7,-1.74,-29.47
15.8,-2.23,-29.47
15.9,-2.23,-29.47
16,-2.23,-29.47
16.1,-2.23,-29.47
16.2,-2.23,-29.47
16.3,-2.23,-29.47
16.4,-2.23,-29.47
16.5,-2.23,-29.82
16.6,-2.23,-29.82
16.7,-2.23,-29.82
16.8,-2.48,-29.82
16.9,-2.48,-29.82
17,-2.48,-29.82
17.1,-2.48,-29.82
17.2,-2.48,-29.82
17.3,-2.48,-29.82
17.4,-2.48,-29.82
17.5,-2.48,-29.82
17.6,-2.48,-29.82
17.7,-2.48,-29.82
17.8,-2.9,-29.82
17.9,-2.9,-29.82
18,-2.9,-30.04
18.1,-2.9,-30.04
18.2,-2.9,-30.04
18.3,-2.9,-30.04
18.4,-2.9,-30.04
18.5,-2.9,-30.04
18.6,-2.9,-30.04
18.7,-2.9,-30.04
18.8,-2.9,-30.04
18.9,-3.11,-30.07
19,-3.11,-30.07
19.1,-3.11,-30.07
19.2,-3.11,-30.07
19.3,-3.11,-30.07
19.4,-3.11,-30.07
19.5,-3.11,-30.07
19.6,-3.11,-30.07
19.7,-3.11,-30.07
19.8,-3.11,-30.35
19.9,-3.11,-30.35
20,-3.37,-30.35
20.1,-3.37,-30.35
20.2,-3.37,-30.35
20.3,-3.37,-30.35
20.4,-3.37,-30.35
20.5,-3.37,-30.35
20.6,-3.37,-30.56
20.7,-3.37,-30.56
20.8,-3.37,-30.56
20.9,-3.37,-30.56
21,-3.37,-30.56
21.1,-3.37,-30.56
21.2,-3.37,-30.56
21.3,-3.37,-30.56
21.4,-3.37,-30.56
21.5,-3.59,-30.56
21.6,-3.59,-30.56
21.7,-3.59,-30.89
21.8,-3.59,-30.89
21.9,-3.59,-30.89
22,-3.59,-30.89
22.1,-3.59,-30.89
22.2,-3.59,-30.89
22.3,-3.59,-30.89
22.4,-3.59,-30.89
22.5,-3.59,-30.89
22.6,-3.59,-30.89
22.7,-3.59,-31.17
22.8,-3.59,-31.17
22.9,-3.59,-31.17
23,-3.59,-31.17
23.1,-3.59,-31.17
23.2,-3.59,-31.17
23.3,-3.59,-31.17
23.4,-3.59,-31.17
23.5,-3.59,-31.35
23.6,-3.59,-31.35
23.7,-3.59,-31.35
23.8,-4.13,-31.35
23.9,-4.13,-31.35
24,-4.13,-31.35
24.1,-4.13,-31.35
24.2,-4.13,-31.35
24.3,-4.13,-31.35
24.4,-4.13,-31.49
24.5,-4.39,-31.49
24.6,-4.39,-31.49
24.7,-4.39,-31.93
24.8,-4.39,-31.93
24.9,-4.39,-31.93
25,-4.39,-31.93
25.1,-4.39,-31.93
25.2,-4.39,-31.93
25.3,-4.39,-31.93
25.4,-4.39,-31.93
25.5,-4.39,-31.93
25.6,-4.39,-31.93
25.7,-4.39,-31.93
25.8,-4.65,-31.93
25.9,-4.65,-31.93
26,-4.65,-31.93
26.1,-4.65,-31.93
26.2,-4.65,-31.93
26.3,-4.65,-31.93
26.4,-4.65,-31.93
26.5,-4.65,-31.93
26.6,-4.65,-31.93
26.7,-4.65,-32.34
26.8,-4.65,-32.34
26.9,-5.18,-32.34
27,-5.18,-32.34
27.1,-5.18,-32.34
27.2,-5.18,-32.34
27.3,-5.18,-32.34
27.4,-5.18,-32.34
27.5,-5.18,-32.34
27.6,-5.18,-32.34
27.7,-5.18,-32.51
27.8,-5.18,-32.51
27.9,-5.42,-32.51
28,-5.42,-32.51
28.1,-5.42,-32.51
28.2,-5.42,-32.51
28.3,-5.42,-32.51
28.4,-5.42,-32.78
28.5,-5.42,-32.78
28.6,-5.42,-32.78
28.7,-5.42,-32.78
28.8,-5.42,-32.78
28.9,-5.42,-32.78
29,-5.74,-32.78
29.1,-5.74,-32.78
29.2,-5.74,-33.03
29.3,-5.74,-33.03
29.4,-5.74,-33.03
29.5,-5.74,-33.03
29.6,-5.74,-33.03
29.7,-5.74,-33.03
29.8,-5.74,-33.03
29.9,-5.74,-33.03
30,-5.74,-33.03
30.1,-5.74,-33.3
30.2,-5.74,-33.3
30.3,-5.74,-33.3
30.4,-5.74,-33.3
30.5,-5.74,-33.3
30.6,-5.74,-33.3
30.7,-5.74,-33.3
30.8,-5.74,-33.3
30.9,-5.74,-33.3
31,-5.74,-33.62
31.1,-5.74,-33.62
31.2,-5.74,-33.62
31.3,-5.74,-33.62
31.4,-5.74,-33.62
31.5,-6.34,-33.62
31.6,-6.34,-33.62
31.7,-6.34,-33.62
31.8,-6.34,-33.62
31.9,-6.34,-33.85
32,-6.34,-33.85
32.1,-6.34,-33.85
32.2,-6.34,-33.85
32.3,-6.57,-33.85
32.4,-6.57,-33.85
32.5,-6.57,-33.85
32.6,-6.57,-33.85
32.7,-6.57,-33.85
32.8,-6.57,-34.28
32.9,-6.57,-34.28
33,-6.57,-34.28
33.1,-6.57,-34.28
33.2,-6.57,-34.28
33.3,-6.57,-34.28
33.4,-6.57,-34.71
33.5,-6.57,-34.71
33.6,-6.89,-34.71
33.7,-6.89,-34.71
33.8,-6.89,-34.71
33.9,-6.89,-34.71
34,-6.89,-34.71
34.1,-6.89,-34.71
34.2,-6.89,-34.71
34.3,-6.89,-34.71
34.4,-6.89,-34.71
34.5,-6.89,-34.71
34.6,-6.89,-34.71
34.7,-6.89,-34.71
34.8,-7.4,-34.71
34.9,-7.4,-34.87
35,-7.4,-34.87
35.1,-7.4,-34.87
35.2,-7.4,-34.87
35.3,-7.4,-34.87
35.4,-7.4,-34.87
35.5,-7.4,-34.87
35.6,-7.4,-34.87
35.7,-7.4,-34.87
35.8,-7.4,-35.49
35.9,-7.4,-35.49
36,-7.4,-35.49
36.1,-7.4,-35.49
36.2,-7.4,-35.49
36.3,-7.4,-35.49
36.4,-7.4,-35.49
36.5,-7.4,-35.49
36.6,-7.4,-35.49
36.7,-7.4,-35.49
36.8,-7.4,-35.81
36.9,-7.4,-35.81
37,-7.85,-35.81
37.1,-7.85,-35.81
37.2,-7.85,-35.81
37.3,-7.85,-35.81
37.4,-7.85,-35.81
37.5,-7.85,-35.81
37.6,-7.85,-35.81
37.7,-7.85,-35.81
37.8,-7.85,-36.09
37.9,-8.2,-36.09
38,-8.2,-36.09
38.1,-8.2,-36.09
38.2,-8.2,-36.09
38.3,-8.2,-36.09
38.4,-8.2,-36.09
38.5,-8.2,-36.09
38.6,-8.2,-36.09
38.7,-8.2,-36.09
38.8,-8.2,-36.64
38.9,-8.2,-36.64
39,-8.82,-36.64
39.1,-8.82,-36.64
39.2,-8.82,-36.64
39.3,-8.82,-36.64
39.4,-8.82,-36.64
39.5,-8.82,-36.64
39.6,-8.82,-36.64
39.7,-8.82,-36.64
39.8,-8.82,-37.1
39.9,-8.82,-37.1
40,-8.82,-37.1
40.1,-8.82,-37.1
40.2,-8.82,-37.1
40.3,-8.82,-37.1
40.4,-8.82,-37.1
40.5,-8.82,-37.1
40.6,-8.82,-37.1
40.7,-8.82,-37.32
40.8,-8.82,-37.32
40.9,-8.82,-37.32
41,-8.82,-37.32
41.1,-8.82,-37.32
41.2,-8.82,-37.32
41.3,-9.22,-37.57
41.4,-9.22,-37.57
41.5,-9.22,-37.57
41.6,-9.22,-37.57
41.7,-9.22,-37.57
41.8,-9.22,-37.57
41.9,-9.22,-38.37
42,-9.52,-38.37
42.1,-9.52,-38.37
42.2,-9.52,-38.37
42.3,-9.52,-38.37
42.4,-9.52,-38.37
42.5,-9.52,-38.37
42.6,-9.52,-38.37
42.7,-9.52,-38.37
42.8,-9.52,-38.37
42.9,-9.52,-38.37
43,-9.52,-38.37
43.1,-9.52,-38.37
43.2,-9.52,-38.37
43.3,-9.52,-38.37
43.4,-9.83,-38.37
43.5,-9.83,-38.37
43.6,-9.83,-38.37
43.7,-9.83,-38.9
43.8,-9.83,-38.9
43.9,-9.83,-38.9
44,-9.83,-38.9
44.1,-9.83,-38.9
44.2,-9.83,-38.9
44.3,-9.83,-38.9
44.4,-9.83,-38.9
44.5,-9.83,-38.9
44.6,-9.83,-38.9
44.7,-10.14,-39.15
44.8,-10.14,-39.15
44.9,-10.14,-39.15
45,-10.14,-39.15
45.1,-10.14,-39.15
45.2,-10.14,-39.15
45.3,-10.14,-39.15
45.4,-10.14,-39.15
45.5,-10.14,-39.15
45.6,-10.14,-39.9
45.7,-10.14,-39.9
45.8,-10.4,-39.9
45.9,-10.4,-39.9
46,-10.4,-39.9
46.1,-10.4,-40.04
46.2,-10.4,-40.04
46.3,-10.4,-40.04
46.4,-10.4,-40.04
46.5,-10.4,-40.04
46.6,-10.4,-40.04
46.7,-10.4,-40.04
46.8,-10.4,-40.04
46.9,-10.99,-40.04
47,-10.99,-40.51
47.1,-10.99,-40.51
47.2,-10.99,-40.51
47.3,-10.99,-40.51
47.4,-10.99,-40.51
47.5,-10.99,-40.51
47.6,-10.99,-40.51
47.7,-10.99,-40.51
47.8,-10.99,-40.51
47.9,-10.99,-40.96
48,-10.99,-40.96
48.1,-10.99,-40.96
48.2,-10.99,-40.96
48.3,-10.99,-40.96
48.4,-10.99,-40.96
48.5,-10.99,-40.96
48.6,-10.99,-40.96
48.7,-10.99,-40.96
48.8,-10.99,-40.96
48.9,-10.99,-41.64
49,-10.99,-41.64
49.1,-11.51,-41.64
49.2,-11.51,-41.64
49.3,-11.51,-41.64
49.4,-11.51,-41.64
49.5,-11.51,-41.64
49.6,-11.51,-41.64
49.7,-11.51,-41.64
49.8,-11.51,-41.64
49.9,-11.51,-42.57
50,-11.78,-42.57
50.1,-11.78,-42.57
50.2,-11.78,-42.57
50.3,-11.78,-43.09
50.4,-11.78,-43.09
50.5,-11.78,-43.09
50.6,-11.78,-43.09
50.7,-11.78,-43.09
50.8,-11.78,-43.09
50.9,-11.78,-43.09
51,-12.02,-43.09
51.1,-12.02,-43.09
51.2,-12.02,-43.09
51.3,-12.02,-43.09
51.4,-12.02,-43.09
51.5,-12.02,-43.09
51.6,-12.02,-43.09
51.7,-12.02,-43.09
51.8,-12.02,-44.21
51.9,-12.02,-44.21
52,-12.02,-44.21
52.1,-12.02,-44.21
52.2,-12.02,-44.21
52.3,-12.02,-44.21
52.4,-12.02,-44.21
52.5,-12.02,-44.21
52.6,-12.02,-44.21
52.7,-12.02,-44.21
52.8,-12.02,-44.21
52.9,-12.02,-44.21
53,-12.02,-44.21
53.1,-12.02,-44.21
53.2,-12.02,-44.71
53.3,-12.02,-44.71
53.4,-12.02,-44.71
53.5,-12.02,-44.71
53.6,-12.02,-44.71
53.7,-12.54,-44.71
53.8,-12.54,-44.71
53.9,-12.54,-44.71
54,-12.54,-44.71
54.1,-12.54,-44.96
54.2,-12.85,-44.96
54.3,-12.85,-44.96
54.4,-12.85,-44.96
54.5,-12.85,-44.96
54.6,-12.85,-44.96
54.7,-12.85,-44.96
54.8,-12.85,-44.96
54.9,-12.85,-44.96
55,-12.85,-44.96
55.1,-12.85,-45.79
55.2,-12.85,-45.79
55.3,-12.85,-45.79
55.4,-13.26,-45.79
55.5,-13.26,-45.79
55.6,-13.26,-45.79
55.7,-13.26,-45.79
55.8,-13.26,-45.79
55.9,-13.26,-45.79
56,-13.26,-47.07
56.1,-13.26,-47.07
56.2,-13.26,-47.07
56.3,-13.26,-47.07
56.4,-13.26,-47.07
56.5,-13.26,-47.07
56.6,-13.52,-47.07
56.7,-13.52,-48.48
56.8,-13.52,-48.48
56.9,-13.52,-48.48
57,-13.52,-48.48
57.1,-13.52,-48.48
57.2,-13.52,-48.48
57.3,-13.52,-48.48
57.4,-13.52,-48.48
57.5,-13.52,-48.48
57.6,-13.52,-48.48
57.7,-13.52,-48.48
57.8,-13.52,-48.48
57.9,-13.52,-48.48
58,-13.93,-48.48
58.1,-13.93,-48.46
58.2,-13.93,-48.46
58.3,-13.93,-48.46
58.4,-13.93,-48.46
58.5,-13.93,-48.46
58.6,-13.93,-48.46
58.7,-13.93,-48.46
58.8,-13.93,-48.46
58.9,-13.93,-48.46
59,-13.93,-48.46
59.1,-14.29,-49.6
59.2,-14.29,-49.6
59.3,-14.29,-49.6
59.4,-14.29,-49.6
59.5,-14.29,-49.6
59.6,-14.29,-49.6
59.7,-14.29,-49.6
59.8,-14.29,-49.6
59.9,-14.29,-49.6
60,-14.29,-51.07
60.1,-14.68,-51.07
60.2,-14.68,-51.07
60.3,-14.68,-51.07
60.4,-14.68,-51.07
60.5,-14.68,-51.07
60.6,-14.68,-51.07
60.7,-14.68,-51.07
60.8,-14.68,-51.07
60.9,-14.68,-51.07
61,-14.68,-51.18
61.1,-14.68,-51.18
61.2,-14.68,-51.18
61.3,-14.68,-51.18
61.4,-14.68,-51.18
61.5,-14.68,-51.18
61.6,-14.68,-51.18
61.7,-14.68,-51.18
61.8,-14.68,-51.18
61.9,-14.68,-51.18
62,-14.68,-52.54
62.1,-14.68,-52.54
62.2,-14.68,-52.54
62.3,-14.68,-52.54
62.4,-14.68,-52.54
62.5,-14.68,-52.54
62.6,-15.01,-52.54
62.7,-15.01,-52.54
62.8,-15.01,-52.54
62.9,-15.01,-51.51
63,-15.01,-51.51
63.1,-15.01,-49.74
63.2,-15.01,-49.74
63.3,-15.01,-49.74
63.4,-15.42,-49.74
63.5,-15.42,-49.74
63.6,-15.42,-49.74
63.7,-15.42,-49.74
63.8,-15.42,-49.74
63.9,-15.42,-49.74
64,-15.42,-49.74
64.1,-15.42,-49.74
64.2,-15.42,-49.74
64.3,-15.42,-49.74
64.4,-15.42,-49.74
64.5,-15.42,-49.74
64.6,-15.42,-49.74
64.7,-15.71,-49.74
64.8,-15.71,-49.74
64.9,-15.71,-49.74
65,-15.71,-49.74
65.1,-15.71,-50.51
65.2,-15.71,-50.51
65.3,-15.71,-50.51
65.4,-15.71,-50.51
65.5,-15.71,-50.51
65.6,-15.71,-50.51
65.7,-15.71,-50.51
65.8,-15.71,-50.51
65.9,-15.92,-49.49
66,-15.92,-49.49
66.1,-15.92,-49.49
66.2,-15.92,-49.49
66.3,-15.92,-49.49
66.4,-15.92,-49.49
66.5,-15.92,-49.49
66.6,-15.92,-49.49
66.7,-15.92,-49.49
66.8,-15.92,-49.06
66.9,-15.92,-49.06
67,-15.92,-49.06
67.1,-16.35,-49.06
67.2,-16.35,-49.06
67.3,-16.35,-49.06
67.4,-16.35,-49.18
67.5,-16.35,-49.18
67.6,-16.35,-49.18
67.7,-16.35,-49.18
67.8,-16.35,-49.18
67.9,-16.35,-49.18
68,-16.35,-49.18
68.1,-16.74,-49.33
68.2,-16.74,-49.33
68.3,-16.74,-49.33
68.4,-16.74,-49.33
68.5,-16.74,-49.33
68.6,-16.74,-49.33
68.7,-16.74,-49.33
68.8,-16.74,-49.33
68.9,-16.74,-49.33
69,-16.74,-49.33
69.1,-16.74,-49.33
69.2,-16.97,-48.6
69.3,-16.97,-48.6
69.4,-16.97,-48.6
69.5,-16.97,-48.6
69.6,-16.97,-48.6
69.7,-16.97,-48.6
69.8,-16.97,-48.6
69.9,-16.97,-48.6
70,-16.97,-48.6
70.1,-16.97,-48.6
70.2,-16.97,-48.6
70.3,-16.97,-48.6
70.4,-16.97,-48.6
70.5,-16.97,-48.6
70.6,-17.29,-48.6
70.7,-17.29,-48.6
70.8,-17.29,-48.6
70.9,-17.29,-48.6
71,-17.29,-48.6
71.1,-17.29,-48.18
71.2,-17.29,-48.18
71.3,-17.29,-48.18
71.4,-17.29,-48.18
71.5,-17.29,-48.18
71.6,-17.29,-48.18
71.7,-17.29,-48.18
71.8,-17.57,-48.18
71.9,-17.57,-48.18
72,-17.57,-48.96
72.1,-17.57,-48.96
72.2,-17.57,-48.96
72.3,-17.57,-48.96
72.4,-17.57,-48.96
72.5,-17.57,-48.96
72.6,-17.57,-48.96
72.7,-17.57,-48.96
72.8,-17.57,-48.96
72.9,-17.57,-48.04
73,-17.57,-48.04
73.1,-17.57,-48.04
73.2,-17.57,-48.04
73.3,-17.57,-48.04
73.4,-17.57,-48.04
73.5,-17.57,-48.04
73.6,-17.57,-48.04
73.7,-17.57,-48.04
73.8,-17.57,-47.76
73.9,-17.57,-47.76
74,-17.57,-47.76
74.1,-18.11,-47.76
74.2,-18.11,-47.76
74.3,-18.11,-47.76
74.4,-18.11,-47.76
74.5,-18.11,-47.51
74.6,-18.11,-47.51
74.7,-18.11,-47.51
74.8,-18.11,-47.51
74.9,-18.11,-47.51
75,-18.11,-47.51
75.1,-18.65,-47.51
75.2,-18.65,-47.51
75.3,-18.65,-47.7
75.4,-18.65,-47.7
75.5,-18.65,-47.7
75.6,-18.65,-47.7
75.7,-18.65,-47.7
75.8,-18.65,-47.7
75.9,-18.65,-47.7
76,-18.65,-46.71
76.1,-18.65,-46.71
76.2,-18.93,-46.71
76.3,-18.93,-46.71
76.4,-18.93,-46.71
76.5,-18.93,-46.71
76.6,-18.93,-46.71
76.7,-18.93,-46.71
76.8,-18.93,-46.71
76.9,-18.93,-46.71
77,-18.93,-46.71
77.1,-18.93,-46.71
77.2,-19.27,-47.21
77.3,-19.27,-47.21
77.4,-19.27,-47.21
77.5,-19.27,-47.21
77.6,-19.27,-47.21
77.7,-19.27,-47.21
77.8,-19.27,-47.21
77.9,-19.27,-47.21
78,-19.27,-47.21
78.1,-19.27,-47.21
78.2,-19.27,-47.21
78.3,-19.27,-47.21
78.4,-19.27,-47.21
78.5,-19.27,-47.21
78.6,-19.27,-47.21
78.7,-19.27,-47.21
78.8,-19.27,-47.21
78.9,-19.27,-46.85
79,-19.27,-46.85
79.1,-19.27,-46.85
79.2,-19.27,-46.85
79.3,-19.27,-46.85
79.4,-19.27,-46.85
79.5,-19.27,-46.85
79.6,-19.27,-47.54
79.7,-19.84,-47.54
79.8,-19.84,-47.54
79.9,-19.84,-47.54
80,-19.84,-47.54
80.1,-19.84,-47.54
80.2,-19.84,-47.54
80.3,-20.18,-47.54
80.4,-20.18,-47.54
80.5,-20.18,-46.82
80.6,-20.18,-46.82
80.7,-20.18,-46.82
80.8,-20.18,-46.82
80.9,-20.18,-46.82
81,-20.18,-46.82
81.1,-20.18,-46.82
81.2,-20.18,-46.82
81.3,-20.18,-46.82
81.4,-20.18,-47.18
81.5,-20.18,-47.18
81.6,-20.18,-47.18
81.7,-20.18,-47.18
81.8,-20.46,-47.18
81.9,-20.46,-47.18
82,-20.46,-47.18
82.1,-20.46,-47.18
82.2,-20.46,-47.18
82.3,-20.46,-47.1
82.4,-20.46,-47.1
82.5,-20.46,-47.1
82.6,-20.46,-47.1
82.7,-20.46,-47.1
82.8,-20.46,-47.1
82.9,-20.46,-47.1
83,-20.76,-47.1
83.1,-20.76,-47.1
83.2,-20.76,-47.1
83.3,-20.76,-46.52
83.4,-20.76,-46.52
83.5,-20.76,-46.52
83.6,-20.76,-46.52
83.7,-20.76,-46.52
83.8,-20.76,-46.52
83.9,-20.76,-46.52
84,-20.76,-46.96
84.1,-20.76,-46.96
84.2,-21.04,-46.96
84.3,-21.04,-46.96
84.4,-21.04,-46.96
84.5,-21.04,-46.96
84.6,-21.04,-46.96
84.7,-21.04,-46.96
84.8,-21.04,-46.96
84.9,-21.04,-47.37
85,-21.04,-47.37
85.1,-21.04,-47.37
85.2,-21.57,-47.37
85.3,-21.57,-47.37
85.4,-21.57,-47.37
85.5,-21.57,-47.37
85.6,-21.57,-46.4
85.7,-21.57,-46.4
85.8,-21.57,-46.4
85.9,-21.57,-46.4
86,-21.57,-46.4
86.1,-21.57,-46.4
86.2,-21.57,-46.4
86.3,-21.57,-46.4
86.4,-21.57,-46.4
86.5,-21.57,-46.4
86.6,-21.57,-46.94
86.7,-21.57,-46.94
86.8,-21.57,-46.94
86.9,-21.57,-46.94
87,-21.57,-46.94
87.1,-21.57,-46.94
87.2,-21.57,-46.94
87.3,-21.57,-46.94
87.4,-21.57,-46.65
87.5,-22.04,-46.65
87.6,-22.04,-46.65
87.7,-22.04,-46.65
87.8,-22.04,-46.65
87.9,-22.04,-46.65
88,-22.04,-46.65
88.1,-22.04,-46.65
88.2,-22.04,-46.65
88.3,-22.57,-46.65
88.4,-22.57,-47.1
88.5,-22.57,-47.1
88.6,-22.57,-47.1
88.7,-22.57,-47.1
88.8,-22.57,-47.1
88.9,-22.57,-47.1
89,-22.57,-47.1
89.1,-22.57,-47.1
89.2,-22.57,-47.12
89.3,-22.79,-47.12
89.4,-22.79,-47.12
89.5,-22.79,-47.12
89.6,-22.79,-47.12
89.7,-22.79,-47.12
89.8,-22.79,-47.12
89.9,-22.79,-47.12
90,-22.79,-47.12
90.1,-22.79,-47.12
90.2,-22.79,-47.33
90.3,-22.79,-47.33
90.4,-22.79,-47.33
90.5,-23.14,-47.33
90.6,-23.14,-47.33
90.7,-23.14,-47.33
90.8,-23.14,-47.35
90.9,-23.14,-47.35
91,-23.14,-47.35
91.1,-23.14,-47.35
91.2,-23.14,-47.35
91.3,-23.14,-47.35
91.4,-23.14,-47.35
91.5,-23.14,-47.35
91.6,-23.14,-47.35
91.7,-23.14,-47.21
91.8,-23.14,-47.21
91.9,-23.14,-47.21
92,-23.48,-47.21
92.1,-23.48,-47.21
92.2,-23.48,-47.21
92.3,-23.48,-47.21
92.4,-23.48,-47.21
92.5,-23.48,-47.9
92.6,-23.48,-47.9
92.7,-23.48,-47.9
92.8,-23.48,-47.9
92.9,-23.48,-48.07
93,-23.48,-48.07
93.1,-23.48,-48.07
93.2,-23.81,-48.07
93.3,-23.81,-48.07
93.4,-23.81,-48.07
93.5,-23.81,-48.07
93.6,-23.81,-48.07
93.7,-23.81,-48.07
93.8,-23.81,-48.07
93.9,-23.81,-48.07
94,-23.81,-48.07
94.1,-23.81,-48.07
94.2,-23.81,-48.07
94.3,-23.81,-48.07
94.4,-23.81,-48.07
94.5,-23.81,-47.24
94.6,-23.81,-47.24
94.7,-23.81,-47.24
94.8,-23.81,-47.24
94.9,-23.81,-47.24
95,-23.81,-47.24
95.1,-23.81,-47.24
95.2,-23.81,-47.24
95.3,-23.81,-47.24
95.4,-24.6,-47.24
95.5,-24.6,-48.35
95.6,-24.6,-48.35
95.7,-24.6,-48.35
95.8,-24.6,-48.35
95.9,-24.6,-48.35
96,-24.6,-48.35
96.1,-24.6,-48.35
96.2,-24.6,-48.35
96.3,-25.12,-48.35
96.4,-25.12,-48.35
96.5,-25.12,-48.15
96.6,-25.12,-48.15
96.7,-25.12,-48.15
96.8,-25.12,-48.15
96.9,-25.12,-48.15
97,-25.12,-48.15
97.1,-25.12,-48.15
97.2,-25.12,-48.15
97.3,-25.12,-48.15
97.4,-25.5,-48.15
97.5,-25.5,-47.87
97.6,-25.5,-47.9
97.7,-25.5,-47.9
97.8,-25.5,-47.9
97.9,-25.5,-47.9
98,-25.5,-47.9
98.1,-25.5,-47.9
98.2,-25.5,-47.9
98.3,-25.5,-47.9
98.4,-25.5,-47.9
98.5,-25.5,-47.9
98.6,-25.95,-47.9
98.7,-25.95,-47.9
98.8,-25.95,-47.9
98.9,-25.95,-47.9
99,-25.95,-47.9
99.1,-25.95,-47.9
99.2,-25.95,-47.9
99.3,-25.95,-47.9
99.4,-25.95,-47.9
99.5,-25.95,-47.5
99.6,-25.95,-47.5
99.7,-25.95,-47.5
99.8,-25.95,-47.5
99.9,-25.95,-47.5
100,-25.95,-47.5
100.1,-25.95,-47.5
100.2,-25.95,-47.5
100.3,-25.95,-47.5
100.4,-25.95,-47.5
100.5,-25.95,-47.93
100.6,-25.95,-47.93
100.7,-25.95,-47.93
100.8,-25.95,-47.93
100.9,-25.95,-47.93
101,-26.54,-47.93
101.1,-26.54,-47.93
101.2,-26.54,-47.99
101.3,-26.54,-47.99
101.4,-26.54,-47.99
101.5,-26.54,-47.99
101.6,-26.88,-47.99
101.7,-26.88,-47.99
101.8,-26.88,-47.62
101.9,-26.88,-47.62
102,-26.88,-47.62
102.1,-26.88,-47.62
102.2,-26.88,-47.62
102.3,-26.88,-47.62
102.4,-26.88,-47.62
102.5,-26.88,-47.62
102.6,-26.88,-47.62
102.7,-26.88,-47.62
102.8,-26.88,-47.65
102.9,-27.37,-47.65
103,-27.37,-47.65
103.1,-27.37,-47.65
103.2,-27.37,-47.65
103.3,-27.37,-47.65
103.4,-27.37,-47.65
103.5,-27.37,-47.65
103.6,-27.37,-47.51
103.7,-27.37,-47.51
103.8,-27.37,-47.51
103.9,-27.37,-47.51
104,-27.37,-47.51
104.1,-27.37,-47.51
104.2,-27.37,-47.51
104.3,-27.37,-47.51
104.4,-27.64,-47.51
104.5,-27.64,-47.51
104.6,-27.64,-47.46
104.7,-27.64,-47.46
104.8,-27.64,-47.46
104.9,-27.64,-47.46
105,-27.64,-47.46
105.1,-27.64,-47.46
105.2,-27.64,-47.46
105.3,-27.64,-47.46
105.4,-27.64,-47.96
105.5,-28.24,-47.96
105.6,-28.24,-47.96
105.7,-28.24,-47.32
105.8,-28.24,-47.32
105.9,-28.24,-47.32
106,-28.24,-47.32
106.1,-28.24,-47.32
106.2,-28.24,-47.32
106.3,-28.24,-47.32
106.4,-28.24,-47.32
106.5,-28.24,-47.32
106.6,-28.54,-47.32
106.7,-28.54,-47.32
106.8,-28.54,-47.32
106.9,-28.54,-46.78
107,-28.54,-46.78
107.1,-28.54,-46.78
107.2,-28.54,-46.78
107.3,-28.54,-46.78
107.4,-28.54,-46.78
107.5,-28.54,-46.78
107.6,-28.54,-46.78
107.7,-28.62,-46.78
107.8,-28.62,-46.78
107.9,-28.62,-46.78
108,-28.62,-46.78
108.1,-28.62,-46.78
108.2,-28.62,-46.78
108.3,-28.62,-46.78
108.4,-28.62,-46.78
108.5,-28.62,-46.78
108.6,-28.62,-46.78
108.7,-28.62,-47.07
108.8,-28.62,-47.07
108.9,-28.84,-47.07
109,-28.84,-47.07
109.1,-28.84,-47.07
109.2,-28.84,-47.07
109.3,-28.84,-47.07
109.4,-28.84,-47.07
109.5,-28.84,-46.7
109.6,-28.84,-46.7
109.7,-28.84,-46.7
109.8,-28.84,-46.7
109.9,-28.84,-46.7
110,-28.84,-46.7
110.1,-28.9,-46.7
110.2,-28.9,-46.7
110.3,-28.9,-46.7
110.4,-28.9,-46.71
110.5,-28.9,-46.71
110.6,-28.9,-46.71
110.7,-28.9,-46.71
110.8,-28.9,-46.71
110.9,-28.9,-46.71
111,-28.9,-46.49
111.1,-28.9,-46.49
111.2,-28.9,-46.49
111.3,-28.9,-46.49
111.4,-28.9,-46.49
111.5,-29.47,-46.49
111.6,-29.47,-46.49
111.7,-29.47,-46.49
111.8,-29.47,-46.49
111.9,-29.47,-46.35
112,-29.47,-46.35
112.1,-29.47,-46.35
112.2,-29.47,-46.35
112.3,-29.47,-46.35
112.4,-29.47,-46.35
112.5,-29.47,-46.35
112.6,-29.47,-46.35
112.7,-29.47,-46.35
112.8,-29.47,-46.46
112.9,-29.47,-46.46
113,-29.47,-46.46
113.1,-29.47,-46.46
113.2,-29.47,-46.46
113.3,-29.47,-46.46
113.4,-29.47,-46.46
113.5,-29.47,-46.46
113.6,-29.47,-46.46
113.7,-29.46,-46.25
113.8,-29.46,-46.25
113.9,-29.46,-46.25
114,-29.46,-46.25
114.1,-29.46,-46.25
114.2,-29.46,-46.25
114.3,-29.46,-46.25
114.4,-29.46,-46.25
114.5,-29.46,-46.25
114.6,-29.6,-45.99
114.7,-29.6,-45.99
114.8,-29.6,-45.99
114.9,-29.6,-45.99
115,-29.6,-45.99
115.1,-29.6,-45.99
115.2,-29.6,-45.99
115.3,-29.6,-45.99
115.4,-29.6,-45.9
115.5,-29.6,-45.9
115.6,-29.61,-45.9
115.7,-29.61,-45.9
115.8,-29.61,-45.9
115.9,-29.61,-45.9
116,-29.61,-46.79
116.1,-29.61,-46.79
116.2,-29.61,-46.79
116.3,-29.61,-46.79
116.4,-29.61,-46.79
116.5,-29.61,-46.79
116.6,-29.61,-46.79
116.7,-29.61,-46.79
116.8,-29.61,-46.79
116.9,-29.4,-46.79
117,-29.4,-46.22
117.1,-29.4,-46.22
117.2,-29.4,-46.22
117.3,-29.4,-46.22
117.4,-29.4,-46.22
117.5,-29.4,-46.22
117.6,-29.4,-46.22
117.7,-29.4,-46.22
117.8,-29.4,-46.22
117.9,-29.4,-45.87
118,-29.4,-45.87
118.1,-29.48,-45.87
118.2,-29.48,-45.87
118.3,-29.48,-45.87
118.4,-29.48,-45.87
118.5,-29.48,-45.87
118.6,-29.48,-45.87
118.7,-29.48,-45.87
118.8,-29.48,-45.87
118.9,-29.48,-45.74
119,-29.48,-45.74
119.1,-29.48,-45.74
119.2,-29.48,-45.74
119.3,-29.48,-45.74
119.4,-29.48,-45.74
119.5,-29.48,-45.74
119.6,-29.5,-45.74
119.7,-29.5,-46.17
119.8,-29.5,-46.17
119.9,-29.5,-46.17
120,-29.5,-46.17
120.1,-29.5,-46.17
120.2,-29.5,-46.17
120.3,-29.5,-46.15
120.4,-29.5,-46.15
120.5,-29.5,-46.15
120.6,-29.49,-46.15
120.7,-29.49,-46.15
120.8,-29.49,-46.15
120.9,-29.49,-46.15
121,-29.49,-46.15
121.1,-29.49,-46.15
121.2,-29.49,-46.07
121.3,-29.49,-46.07
121.4,-29.49,-46.07
121.5,-29.49,-46.07
121.6,-29.49,-46.07
121.7,-29.46,-46.07
121.8,-29.46,-46.07
121.9,-29.46,-46.07
122,-29.46,-45.87
122.1,-29.46,-45.87
122.2,-29.46,-45.87
122.3,-29.46,-45.87
122.4,-29.46,-45.87
122.5,-29.46,-45.87
122.6,-29.46,-45.87
122.7,-29.46,-45.87
122.8,-29.46,-45.87
122.9,-29.45,-45.87
123,-29.45,-46.06
123.1,-29.45,-46.06
123.2,-29.45,-46.06
123.3,-29.45,-46.06
123.4,-29.45,-47.04
123.5,-29.45,-47.04
123.6,-29.45,-47.04
123.7,-29.45,-47.04
123.8,-29.45,-47.04
123.9,-29.45,-47.04
124,-29.45,-47.04
124.1,-29.56,-47.04
124.2,-29.56,-47.04
124.3,-29.56,-47.04
124.4,-29.56,-47.04
124.5,-29.56,-47.04
124.6,-29.56,-47.04
124.7,-29.56,-47.04
124.8,-29.56,-47.04
124.9,-29.56,-47.04
125,-29.56,-46.4
125.1,-29.56,-46.4
125.2,-29.56,-46.4
125.3,-29.56,-46.4
125.4,-29.56,-46.4
125.5,-29.56,-46.4
125.6,-29.56,-46.4
125.7,-29.56,-46.4
125.8,-29.56,-46.4
125.9,-29.56,-46.4
126,-29.56,-46.4
126.1,-29.56,-46.4
126.2,-29.56,-46.4
126.3,-29.56,-46.4
126.4,-29.56,-46.4
126.5,-29.56,-46.4
126.6,-29.76,-46.4
126.7,-29.76,-46.4
126.8,-29.76,-46.54
126.9,-29.76,-46.54
127,-29.76,-46.54
127.1,-29.76,-46.54
127.2,-29.76,-46.54
127.3,-29.76,-46.74
127.4,-29.93,-46.74
127.5,-29.93,-46.74
127.6,-29.93,-46.74
127.7,-29.93,-46.74
127.8,-29.93,-46.74
127.9,-29.93,-46.74
128,-29.93,-46.74
128.1,-29.93,-46.74
128.2,-29.93,-46.74
128.3,-29.93,-46.96
128.4,-29.93,-46.96
128.5,-29.93,-46.96
128.6,-30,-46.96
128.7,-30,-46.96
128.8,-30,-46.96
128.9,-30,-46.96
129,-30,-47.24
129.1,-30,-47.24
129.2,-30,-47.24
129.3,-30,-47.24
129.4,-30,-47.24
129.5,-30,-47.24
129.6,-30,-47.24
129.7,-30.6,-47.24
129.8,-30.6,-47.24
129.9,-30.6,-47.24
130,-30.6,-47.07
130.1,-30.6,-47.07
130.2,-30.6,-47.07
130.3,-30.6,-47.07
130.4,-30.6,-47.07
130.5,-30.6,-47.07
130.6,-30.6,-47.07
130.7,-30.6,-47.07
130.8,-30.65,-47.07
130.9,-30.65,-47.07
131,-30.65,-46.76
131.1,-30.65,-46.76
131.2,-30.65,-46.76
131.3,-30.65,-46.76
131.4,-30.65,-46.76
131.5,-30.65,-46.76
131.6,-30.65,-46.76
131.7,-30.65,-46.76
131.8,-30.65,-46.57
131.9,-30.65,-46.57
132,-30.65,-46.57
132.1,-30.65,-46.57
132.2,-30.93,-46.57
132.3,-30.93,-47.43
132.4,-30.93,-47.43
132.5,-30.93,-47.43
132.6,-30.93,-47.43
132.7,-30.93,-47.43
132.8,-30.93,-47.43
132.9,-30.93,-47.43
133,-30.93,-47.43
133.1,-30.93,-46.76
133.2,-30.93,-46.76
133.3,-30.93,-46.76
133.4,-31.35,-46.76
133.5,-31.35,-46.76
133.6,-31.35,-46.76
133.7,-31.35,-46.76
133.8,-31.35,-46.76
133.9,-31.35,-46.76
134,-31.35,-46.76
134.1,-31.35,-46.74
134.2,-31.35,-46.74
134.3,-31.35,-46.74
134.4,-31.35,-46.74
134.5,-31.35,-46.74
134.6,-31.35,-46.74
134.7,-31.99,-46.74
134.8,-31.99,-46.74
134.9,-31.99,-46.74
135,-31.99,-46.74
135.1,-31.99,-47.12
135.2,-31.99,-47.12
135.3,-31.99,-47.12
135.4,-31.99,-47.12
135.5,-31.99,-47.12
135.6,-31.99,-47.12
135.7,-31.99,-46.68
135.8,-32.32,-46.68
135.9,-32.32,-46.68
136,-32.32,-46.68
136.1,-32.32,-47.57
136.2,-32.32,-47.57
136.3,-32.32,-47.57
136.4,-32.32,-47.57
136.5,-32.32,-47.57
136.6,-32.32,-47.57
136.7,-32.32,-47.57
136.8,-32.32,-47.57
136.9,-32.32,-47.57
137,-33.14,-47.57
137.1,-33.14,-47.57
137.2,-33.14,-47.57
137.3,-33.14,-47.57
137.4,-33.14,-47.57
137.5,-33.14,-47.57
137.6,-33.14,-47.57
137.7,-33.14,-47.57
137.8,-33.14,-47.49
137.9,-33.14,-47.49
138,-33.14,-47.49
138.1,-33.14,-47.49
138.2,-33.79,-47.49
138.3,-33.79,-47.49
138.4,-33.79,-47.49
138.5,-33.79,-47.49
138.6,-33.79,-47.49
138.7,-33.79,-47.71
138.8,-33.79,-47.71
138.9,-33.79,-47.71
139,-33.79,-47.71
139.1,-33.79,-47.71
139.2,-33.79,-47.93
139.3,-33.79,-47.93
139.4,-33.79,-47.93
139.5,-33.79,-47.93
139.6,-33.79,-47.93
139.7,-34.54,-47.93
139.8,-34.54,-47.93
139.9,-34.54,-47.93
140,-34.54,-47.93
140.1,-34.54,-47.56
140.2,-34.54,-47.56
140.3,-34.54,-47.56
140.4,-34.54,-47.56
140.5,-34.54,-47.56
140.6,-34.54,-47.56
140.7,-34.54,-47.56
140.8,-35.04,-47.56
140.9,-35.04,-47.56
141,-35.04,-47.56
141.1,-35.04,-47.56
141.2,-35.04,-48.35
141.3,-35.04,-48.35
141.4,-35.04,-48.35
141.5,-35.04,-48.35
141.6,-35.04,-48.35
141.7,-35.04,-48.35
141.8,-35.62,-48.35
141.9,-35.62,-48.35
142,-35.62,-48.35
142.1,-35.62,-47.93
142.2,-35.62,-47.93
142.3,-35.62,-47.93
142.4,-35.62,-47.93
142.5,-35.62,-47.93
142.6,-35.62,-47.93
142.7,-35.62,-48.01
142.8,-35.62,-48.01
142.9,-36.28,-48.01
143,-36.28,-48.01
143.1,-36.28,-48.01
143.2,-36.28,-48.01
143.3,-36.28,-48.01
143.4,-36.28,-48.01
143.5,-36.28,-48.01
143.6,-36.28,-48.24
143.7,-36.28,-48.24
143.8,-36.28,-48.24
143.9,-36.28,-48.24
144,-36.28,-48.24
144.1,-36.28,-48.24
144.2,-36.28,-48.29
144.3,-36.28,-48.29
144.4,-36.28,-48.29
144.5,-36.18,-48.29
144.6,-36.18,-48.29
144.7,-36.18,-48.29
144.8,-36.18,-48.29
144.9,-36.18,-48.29
145,-36.18,-48.29
145.1,-36.18,-48.29
145.2,-36.18,-48.51
145.3,-36.18,-48.51
145.4,-36.18,-48.51
145.5,-36.18,-48.51
145.6,-36.18,-48.51
145.7,-36.74,-48.51
145.8,-36.74,-48.51
145.9,-36.74,-48.51
146,-36.74,-48.51
146.1,-36.74,-49.08
146.2,-36.74,-49.08
146.3,-36.74,-49.08
146.4,-36.74,-49.08
146.5,-36.74,-49.08
146.6,-36.74,-49.08
146.7,-36.74,-49.08
146.8,-35.76,-49.08
146.9,-35.76,-49.08
147,-35.76,-49.06
147.1,-35.76,-49.06
147.2,-35.76,-49.06
147.3,-35.76,-49.06
147.4,-35.76,-49.06
147.5,-35.76,-49.06
147.6,-35.76,-49
147.7,-35.76,-49
147.8,-35.76,-49
147.9,-35.57,-49
148,-35.57,-49
148.1,-35.57,-49
148.2,-35.57,-49.01
148.3,-35.57,-49.01
148.4,-35.57,-49.01
148.5,-35.57,-49.01
148.6,-35.57,-49.01
148.7,-35.57,-49.01
148.8,-35.57,-49.01
148.9,-35.57,-49.01
149,-34.71,-49.01
149.1,-34.71,-49.54
149.2,-34.71,-49.54
149.3,-34.71,-49.54
149.4,-34.71,-49.54
149.5,-34.71,-49.54
149.6,-34.71,-49.54
149.7,-34.71,-49.54
149.8,-34.71,-49.54
149.9,-34.71,-49.54
150,-34.71,-49.54
150.1,-34.71,-49.54
150.2,-34.71,-49.54
150.3,-34.71,-50.51
150.4,-34.71,-50.51
150.5,-34.71,-50.51
150.6,-33.85,-50.51
150.7,-33.85,-50.51
150.8,-33.85,-50.51
150.9,-33.85,-50.51
151,-33.85,-50.51
151.1,-33.85,-50.51
151.2,-33.85,-50.51
151.3,-33.85,-50.92
151.4,-33.85,-50.92
151.5,-33.85,-50.92
151.6,-33.85,-50.92
151.7,-33.85,-50.92
151.8,-32.35,-50.92
151.9,-32.35,-50.92
152,-32.35,-50.92
152.1,-32.35,-50.92
152.2,-32.35,-50.92
152.3,-32.35,-51.18
152.4,-32.35,-51.62
152.5,-32.35,-51.62
152.6,-32.35,-51.62
152.7,-32.35,-51.62
152.8,-31.32,-51.62
152.9,-31.32,-51.62
153,-31.32,-51.62
153.1,-31.32,-51.62
153.2,-31.32,-51.62
153.3,-31.32,-51.62
153.4,-31.32,-51.62
153.5,-31.32,-51.62
153.6,-31.32,-51.62
153.7,-31.32,-51.62
153.8,-31.32,-51.62
153.9,-30.43,-51.62
154,-30.43,-51.62
154.1,-30.43,-51.62
154.2,-30.43,-51.62
154.3,-30.43,-52.37
154.4,-30.43,-52.37
154.5,-30.43,-52.37
154.6,-30.43,-52.37
154.7,-30.43,-52.37
154.8,-30.43,-52.37
154.9,-30.43,-52.37
155,-30.43,-52.37
155.1,-29.74,-52.37
155.2,-29.74,-51.65
155.3,-29.74,-51.65
155.4,-29.74,-51.65
155.5,-29.74,-51.65
155.6,-29.74,-51.65
155.7,-29.74,-52.15
155.8,-29.74,-52.15
155.9,-29.74,-52.15
156,-29.74,-52.15
156.1,-29.74,-52.15
156.2,-29.74,-52.15
156.3,-29.74,-52.15
156.4,-29.74,-51.74
156.5,-29.74,-51.74
156.6,-29.74,-51.74
156.7,-28.92,-51.74
156.8,-28.92,-51.74
156.9,-28.92,-51.74
157,-28.92,-51.74
157.1,-28.92,-51.74
157.2,-28.92,-51.74
157.3,-28.92,-53.93
157.4,-28.92,-53.93
157.5,-28.92,-53.93
157.6,-28.92,-53.93
157.7,-28.92,-53.93
157.8,-27.85,-53.93
157.9,-27.85,-53.93
158,-27.85,-53.93
158.1,-27.85,-53.93
158.2,-27.85,-53.93
158.3,-27.85,-53.69
158.4,-27.85,-53.69
158.5,-27.85,-53.69
158.6,-27.85,-53.69
158.7,-27.85,-53.69
158.8,-27.85,-53.69
158.9,-27.1,-53.69
159,-27.1,-53.69
159.1,-27.1,-53.69
159.2,-27.1,-53.37
159.3,-27.1,-53.37
159.4,-27.1,-53.37
159.5,-27.1,-53.37
159.6,-27.1,-53.37
159.7,-27.1,-53.76
159.8,-27.1,-53.76
159.9,-26.57,-53.76
160,-26.57,-53.76
160.1,-26.57,-53.76
160.2,-26.57,-53.76
160.3,-26.57,-53.76
160.4,-26.57,-53.46
160.5,-26.57,-53.46
160.6,-26.57,-53.46
160.7,-26.57,-53.46
160.8,-26.57,-53.46
160.9,-26.57,-53.46
161,-26.57,-53.46
161.1,-26.57,-53.46
161.2,-26.57,-53.46
161.3,-26.57,-53.81
161.4,-25.87,-53.81
161.5,-25.87,-53.81
161.6,-25.87,-53.81
161.7,-25.87,-53.81
161.8,-25.87,-53.81
161.9,-25.87,-53.93
162,-25.87,-53.93
162.1,-25.87,-53.93
162.2,-25.87,-53.93
162.3,-25.87,-53.93
162.4,-25.87,-53.93
162.5,-25.87,-53.93
162.6,-25.43,-53.93
162.7,-25.43,-53.93
162.8,-25.43,-53.93
162.9,-25.43,-53.93
163,-25.43,-53.93
163.1,-25.43,-53.93
163.2,-25.43,-53.93
163.3,-25.43,-53.93
163.4,-25.43,-53.99
163.5,-25.43,-53.99
163.6,-25.43,-53.99
163.7,-25.43,-53.99
163.8,-25.43,-53.99
163.9,-24.99,-53.99
164,-24.99,-53.99
164.1,-24.99,-53.99
164.2,-24.99,-53.99
164.3,-24.99,-53.51
164.4,-24.99,-53.51
164.5,-24.99,-53.51
164.6,-24.99,-53.51
164.7,-24.99,-53.51
164.8,-24.99,-53.51
164.9,-24.46,-53.51
165,-24.46,-53.51
165.1,-24.46,-53.51
165.2,-24.46,-51.85
165.3,-24.46,-51.85
165.4,-24.46,-51.85
165.5,-24.46,-51.85
165.6,-24.46,-51.85
165.7,-24.46,-52.04
165.8,-24.46,-52.04
165.9,-24.46,-52.04
166,-24.46,-52.04
166.1,-24.21,-52.04
166.2,-24.21,-52.04
166.3,-24.21,-52.04
166.4,-24.21,-52.04
166.5,-24.21,-52.04
166.6,-24.21,-51.4
166.7,-24.21,-51.4
166.8,-24.21,-51.4
166.9,-24.21,-51.4
167,-24.21,-51.4
167.1,-24.21,-51.4
167.2,-24.21,-51.4
167.3,-23.89,-51.4
167.4,-23.89,-50.88
167.5,-23.89,-50.88
167.6,-23.89,-50.88
167.7,-23.89,-50.88
167.8,-23.89,-50.88
167.9,-23.89,-50.88
168,-23.89,-50.88
168.1,-23.89,-50.88
168.2,-23.89,-50.88
168.3,-23.89,-50.88
168.4,-23.89,-49.95
168.5,-23.89,-49.95
168.6,-23.89,-49.95
168.7,-23.89,-49.95
168.8,-23.89,-49.95
168.9,-23.6,-49.95
169,-23.6,-49.95
169.1,-23.6,-49.95
169.2,-23.6,-50.9
169.3,-23.6,-50.9
169.4,-23.6,-50.9
169.5,-23.6,-50.9
169.6,-23.6,-50.9
169.7,-23.6,-50.49
169.8,-23.6,-50.49
169.9,-23.49,-50.49
170,-23.49,-50.49
170.1,-23.49,-50.49
170.2,-23.49,-50.49
170.3,-23.49,-50.49
170.4,-23.49,-51.15
170.5,-23.49,-51.15
170.6,-23.49,-51.15
170.7,-23.49,-51.15
170.8,-23.49,-51.15
170.9,-23.49,-51.15
171,-23.44,-51.15
171.1,-23.44,-51.15
171.2,-23.44,-51.15
171.3,-23.44,-51.15
171.4,-23.44,-51.15
171.5,-23.44,-51.15
171.6,-23.44,-51.15
171.7,-23.44,-51.15
171.8,-23.44,-50.49
171.9,-23.44,-50.49
172,-23.44,-50.49
172.1,-23.19,-50.49
172.2,-23.19,-50.49
172.3,-23.19,-50.49
172.4,-23.19,-49.78
172.5,-23.19,-49.78
172.6,-23.19,-49.78
172.7,-23.19,-49.78
172.8,-23.19,-49.78
172.9,-23.19,-49.78
173,-23.19,-49.78
173.1,-23.19,-49.78
173.2,-23.19,-49.78
173.3,-23.19,-49.78
173.4,-23.19,-49.43
173.5,-23.19,-49.43
173.6,-23.19,-49.43
173.7,-23.35,-49.43
173.8,-23.35,-49.43
173.9,-23.35,-48.98
174,-23.35,-48.98
174.1,-23.35,-48.98
174.2,-23.35,-48.98
174.3,-23.35,-48.98
174.4,-23.35,-48.98
174.5,-23.35,-48.98
174.6,-23.35,-48.98
174.7,-23.35,-48.98
174.8,-23.35,-48.98
174.9,-23.17,-48.98
175,-23.17,-48.98
175.1,-23.17,-48.98
175.2,-23.17,-48.6
175.3,-23.17,-48.6
175.4,-23.17,-48.6
175.5,-23.17,-48.6
175.6,-23.17,-48.6
175.7,-23.17,-48.6
175.8,-23.17,-48.6
175.9,-23.15,-48.6
176,-23.15,-48.6
176.1,-23.15,-48.6
176.2,-23.15,-48.6
176.3,-23.15,-48.6
176.4,-23.15,-48.6
176.5,-23.15,-48.6
176.6,-23.15,-48.15
176.7,-23.15,-48.15
176.8,-23.15,-48.15
176.9,-23.15,-48.15
177,-23.35,-48.15
177.1,-23.35,-48.15
177.2,-23.35,-48.15
177.3,-23.35,-48.15
177.4,-23.35,-49.07
177.5,-23.35,-49.07
177.6,-23.35,-49.07
177.7,-23.35,-49.07
177.8,-23.35,-49.07
177.9,-23.35,-49.07
178,-23.35,-49.07
178.1,-23.38,-49.07
178.2,-23.38,-49.07
178.3,-23.38,-49.07
178.4,-23.38,-49.37
178.5,-23.38,-49.46
178.6,-23.38,-49.46
178.7,-23.38,-49.46
178.8,-23.38,-49.46
178.9,-23.38,-49.46
179,-23.38,-49.46
179.1,-23.38,-49.46
179.2,-23.38,-49.46
179.3,-23.38,-49.46
179.4,-23.38,-49.46
179.5,-23.38,-49.46
179.6,-23.38,-49.46
179.7,-23.57,-49.46
179.8,-23.57,-49.46
179.9,-23.57,-49.46
180,-23.57,-49.46
180.1,-23.57,-49.46
180.2,-23.57,-49.46
180.3,-23.57,-49.46
180.4,-23.57,-49.1
180.5,-23.57,-49.1
180.6,-23.57,-49.1
180.7,-23.57,-49.1
180.8,-23.57,-49.1
180.9,-23.57,-49.1
181,-23.57,-49.1
181.1,-23.57,-49.1
181.2,-23.57,-49.1
181.3,-23.57,-48.52
181.4,-23.57,-48.52
181.5,-23.57,-48.52
181.6,-23.57,-48.52
181.7,-23.57,-48.52
181.8,-23.57,-48.52
181.9,-23.57,-48.54
182,-23.91,-48.54
182.1,-23.91,-48.54
182.2,-23.91,-48.54
182.3,-23.91,-48.54
182.4,-23.91,-48.54
182.5,-23.91,-48.54
182.6,-23.91,-48.54
182.7,-23.91,-48.54
182.8,-23.91,-48.54
182.9,-23.91,-48.54
183,-24.38,-48.54
183.1,-24.38,-48.54
183.2,-24.38,-48.54
183.3,-24.38,-48.54
183.4,-24.38,-48.54
183.5,-24.38,-48.54
183.6,-24.38,-48.26
183.7,-24.38,-48.26
183.8,-24.38,-48.26
183.9,-24.38,-48.26
184,-24.76,-48.26
184.1,-24.76,-48.26
184.2,-24.76,-48.26
184.3,-24.76,-48.26
184.4,-24.76,-48.26
184.5,-24.76,-48.82
184.6,-24.76,-48.82
184.7,-24.76,-48.82
184.8,-24.76,-48.82
184.9,-24.76,-48.82
185,-24.76,-48.82
185.1,-25.35,-48.82
185.2,-25.35,-48.82
185.3,-25.35,-48.82
185.4,-25.35,-48.82
185.5,-25.35,-48.82
185.6,-25.35,-48.82
185.7,-25.35,-48.82
185.8,-25.35,-48.82
185.9,-25.35,-48.82
186,-25.35,-48.82
186.1,-25.35,-48.82
186.2,-25.35,-48.82
186.3,-25.72,-48.79
186.4,-25.72,-48.79
186.5,-25.72,-48.99
186.6,-25.72,-48.99
186.7,-25.72,-48.99
186.8,-25.72,-48.99
186.9,-25.72,-48.99
187,-25.72,-48.99
187.1,-25.72,-48.99
187.2,-25.72,-48.99
187.3,-25.72,-48.99
187.4,-25.72,-48.99
187.5,-25.72,-48.99
187.6,-25.72,-48.99
187.7,-25.72,-48.99
187.8,-25.72,-48.99
187.9,-26.24,-48.99
188,-26.24,-48.99
188.1,-26.24,-48.99
188.2,-26.24,-48.99
188.3,-26.24,-48.99
188.4,-26.24,-50.79
188.5,-26.24,-50.79
188.6,-26.24,-50.79
188.7,-26.24,-50.79
188.8,-26.24,-50.79
188.9,-26.24,-50.79
189,-27.01,-50.79
189.1,-27.01,-50.46
189.2,-27.01,-50.46
189.3,-27.01,-50.46
189.4,-27.01,-50.46
189.5,-27.01,-50.46
189.6,-27.01,-49.93
189.7,-27.01,-49.93
189.8,-27.01,-49.93
189.9,-27.01,-49.93
190,-27.92,-49.93
190.1,-27.92,-49.93
190.2,-27.92,-49.93
190.3,-27.92,-49.93
190.4,-27.92,-49.93
190.5,-27.92,-50.54
190.6,-27.92,-50.54
190.7,-27.92,-50.54
190.8,-27.92,-50.54
190.9,-27.92,-50.54
191,-27.92,-50.54
191.1,-27.92,-50.54
191.2,-27.92,-50.54
191.3,-27.92,-50.54
191.4,-28.64,-50.54
191.5,-28.64,-50.54
191.6,-28.64,-50.54
191.7,-28.64,-50.54
191.8,-28.64,-50.54
191.9,-28.64,-50.54
192,-28.64,-50.54
192.1,-28.64,-50.54
192.2,-28.64,-50.82
192.3,-28.64,-50.82
192.4,-28.64,-50.82
192.5,-28.64,-50.82
192.6,-28.64,-50.82
192.7,-29.43,-50.82
192.8,-29.43,-50.82
192.9,-29.43,-50.82
193,-29.43,-50.82
193.1,-29.43,-50.82
193.2,-29.43,-50.82
193.3,-29.43,-50.82
193.4,-29.43,-50.82
193.5,-29.43,-50.82
193.6,-29.43,-51.92
193.7,-29.43,-51.92
193.8,-29.43,-51.92
193.9,-29.43,-51.92
194,-30.99,-51.92
194.1,-30.99,-51.92
194.2,-30.99,-51.92
194.3,-30.99,-51.92
194.4,-30.99,-51.92
194.5,-30.99,-51.51
194.6,-30.99,-51.51
194.7,-30.99,-51.51
194.8,-30.99,-51.51
194.9,-30.99,-51.51
195,-32.35,-51.51
195.1,-32.35,-51.51
195.2,-32.35,-51.51
195.3,-32.35,-51.51
195.4,-32.35,-51.51
195.5,-32.35,-51.84
195.6,-32.35,-51.84
195.7,-32.35,-51.84
195.8,-32.35,-51.84
195.9,-32.35,-51.84
196,-32.35,-51.84
196.1,-32.35,-51.49
196.2,-33.37,-51.49
196.3,-33.37,-51.49
196.4,-33.37,-51.49
196.5,-33.37,-51.49
196.6,-33.37,-51.49
196.7,-33.37,-50.99
196.8,-33.37,-50.99
196.9,-33.37,-50.99
197,-33.37,-50.99
197.1,-33.37,-50.99
197.2,-33.37,-50.99
197.3,-33.37,-50.99
197.4,-33.37,-50.99
197.5,-35.01,-50.4
197.6,-35.01,-50.4
197.7,-35.01,-50.4
197.8,-35.01,-50.4
197.9,-35.01,-50.4
198,-35.01,-50.4
198.1,-35.01,-50.4
198.2,-35.01,-50.4
198.3,-35.01,-50.4
198.4,-35.01,-50.4
198.5,-35.01,-52.24
198.6,-35.01,-52.24
198.7,-35.01,-52.24
198.8,-35.01,-52.24
198.9,-35.01,-52.24
199,-37.51,-52.24
199.1,-37.51,-52.24
199.2,-37.51,-52.24
199.3,-37.51,-52.24
199.4,-37.51,-52.24
199.5,-37.51,-53.24
199.6,-37.51,-53.24
199.7,-37.51,-53.24
199.8,-37.51,-53.24
199.9,-37.51,-53.24
200,-37.51,-53.24
200.1,-37.51,-53.86
200.2,-37.51,-53.86
200.3,-37.51,-53.86
200.4,-37.51,-53.86
200.5,-37.51,-53.86
200.6,-37.51,-52.19
200.7,-37.51,-52.19
200.8,-37.51,-52.19
200.9,-37.51,-52.19
201,-37.51,-52.19
201.1,-42.46,-52.19
201.2,-42.46,-52.19
201.3,-42.46,-52.19
201.4,-42.46,-52.19
201.5,-42.46,-52.19
201.6,-42.46,-52.46
201.7,-42.46,-52.46
201.8,-42.46,-52.46
201.9,-42.46,-52.46
202,-42.46,-52.46
202.1,-45.99,-52.46
202.2,-45.99,-52.46
202.3,-45.99,-52.46
202.4,-45.99,-52.46
202.5,-45.99,-53.18
202.6,-45.99,-53.18
202.7,-45.99,-53.18
202.8,-45.99,-53.18
202.9,-45.99,-53.18
203,-45.99,-53.18
203.1,-45.54,-53.18
203.2,-45.54,-53.18
203.3,-45.54,-53.18
203.4,-45.54,-52.43
203.5,-45.54,-52.43
203.6,-45.54,-51.43
203.7,-45.54,-51.43
203.8,-45.54,-51.43
203.9,-45.54,-51.43
204,-45.54,-51.43
204.1,-45.54,-51.43
204.2,-45.54,-51.43
204.3,-45.54,-51.43
204.4,-45.54,-51.43
204.5,-45.54,-51.43
204.6,-45.54,-51.43
204.7,-44.99,-51.43
204.8,-44.99,-52.57
204.9,-44.99,-52.57
205,-44.99,-52.57
205.1,-44.99,-52.57
205.2,-44.99,-52.57
205.3,-44.99,-52.57
205.4,-44.99,-52.57
205.5,-44.99,-52.57
205.6,-44.99,-52.57
205.7,-44.99,-52.57
205.8,-44.99,-52.57
205.9,-42.18,-52.57
206,-42.18,-52.57
206.1,-42.18,-52.57
206.2,-42.18,-52.57
206.3,-42.18,-52.57
206.4,-42.18,-52.57
206.5,-42.18,-51.57
206.6,-42.18,-51.57
206.7,-42.18,-51.57
206.8,-42.18,-51.57
206.9,-42.18,-51.57
207,-42.18,-51.57
207.1,-40.24,-51.57
207.2,-40.24,-51.57
207.3,-40.24,-51.57
207.4,-40.24,-51.57
207.5,-40.24,-51.51
207.6,-40.24,-51.51
207.7,-40.24,-51.51
207.8,-40.24,-51.51
207.9,-40.24,-51.51
208,-40.24,-51.51
208.1,-40.24,-51.51
208.2,-40.24,-51.35
208.3,-38.37,-51.35
208.4,-38.37,-51.35
208.5,-38.37,-50.49
208.6,-38.37,-50.49
208.7,-38.37,-50.49
208.8,-38.37,-50.49
208.9,-38.37,-50.49
209,-38.37,-50.49
209.1,-38.37,-50.49
209.2,-38.37,-50.49
209.3,-38.37,-50.49
209.4,-38.37,-50.49
209.5,-38.37,-50.49
209.6,-38.37,-50.49
209.7,-38.37,-50.49
209.8,-38.37,-50.49
209.9,-38.37,-50.49
210,-38.37,-50.49
210.1,-38.37,-50.49
210.2,-38.37,-50.49
210.3,-38.37,-50.71
210.4,-38.37,-50.71
210.5,-38.37,-50.71
210.6,-38.37,-50.71
210.7,-38.37,-50.71
210.8,-38.37,-49.79
210.9,-38.37,-49.79
211,-38.37,-49.79
211.1,-36.35,-49.79
211.2,-36.35,-49.79
211.3,-36.35,-49.79
211.4,-36.35,-49.79
211.5,-36.35,-49.79
211.6,-36.35,-49.44
211.7,-36.35,-49.44
211.8,-36.35,-49.44
211.9,-36.35,-49.44
212,-36.35,-49.44
212.1,-35.35,-49.26
212.2,-35.35,-49.26
212.3,-35.35,-49.26
212.4,-35.35,-49.26
212.5,-35.35,-49.26
212.6,-35.35,-49.26
212.7,-35.35,-49.26
212.8,-35.35,-49.26
212.9,-35.35,-49.26
213,-35.35,-49.26
213.1,-34.37,-49.26
213.2,-34.37,-49.26
213.3,-34.37,-49.26
213.4,-34.37,-49.26
213.5,-34.37,-49.26
213.6,-34.37,-49.26
213.7,-34.37,-48.76
213.8,-34.37,-48.76
213.9,-34.37,-48.76
214,-34.37,-48.76
214.1,-34.37,-48.76
214.2,-34.02,-48.76
214.3,-34.02,-48.76
214.4,-34.02,-48.76
214.5,-34.02,-48.76
214.6,-34.02,-48.76
214.7,-34.02,-48.76
214.8,-34.02,-48.76
214.9,-34.02,-48.76
215,-34.02,-48.76
215.1,-34.02,-48.76
215.2,-34.02,-48.76
215.3,-34.02,-48.76
215.4,-33.43,-48.76
215.5,-33.43,-48.37
215.6,-33.43,-48.37
215.7,-33.43,-48.37
215.8,-33.43,-48.37
215.9,-33.43,-48.37
216,-33.43,-48.37
216.1,-33.43,-48.37
216.2,-33.43,-48.37
216.3,-33.43,-48.37
216.4,-33.43,-48.51
216.5,-33.43,-48.51
216.6,-33.43,-48.51
216.7,-33.43,-48.51
216.8,-33.43,-48.51
216.9,-33.43,-48.24
217,-33.35,-48.24
217.1,-33.35,-48.24
217.2,-33.35,-48.24
217.3,-33.35,-48.24
217.4,-33.35,-48.24
217.5,-33.35,-48.24
217.6,-33.35,-48.31
217.7,-33.35,-48.31
217.8,-33.35,-48.31
217.9,-33.35,-48.31
218,-33.35,-48.31
218.1,-32.9,-48.31
218.2,-32.9,-48.31
218.3,-32.9,-48.31
218.4,-32.9,-48.31
218.5,-32.9,-48.31
218.6,-32.9,-47.84
218.7,-32.9,-47.84
218.8,-32.9,-47.84
218.9,-32.9,-47.84
219,-32.9,-47.84
219.1,-32.76,-47.84
219.2,-32.76,-47.84
219.3,-32.76,-47.84
219.4,-32.76,-47.84
219.5,-32.76,-47.84
219.6,-32.76,-47.21
219.7,-32.76,-47.21
219.8,-32.76,-47.21
219.9,-32.76,-47.21
220,-32.76,-47.21
220.1,-32.76,-47.21
220.2,-32.76,-47.21
220.3,-32.76,-47.21
220.4,-32.76,-48.37
220.5,-32.99,-48.37
220.6,-32.99,-48.37
220.7,-32.99,-47.49
220.8,-32.99,-47.49
220.9,-32.99,-47.49
221,-32.99,-47.49
221.1,-32.99,-47.49
221.2,-32.99,-47.49
221.3,-32.99,-47.49
221.4,-32.99,-47.49
221.5,-32.99,-47.49
221.6,-32.99,-47.15
221.7,-32.99,-47.15
221.8,-32.99,-47.15
221.9,-32.99,-47.15
222,-32.99,-47.15
222.1,-32.56,-47.15
222.2,-32.56,-47.15
222.3,-32.56,-47.15
222.4,-32.56,-47.15
222.5,-32.56,-47.15
222.6,-32.56,-47.15
222.7,-32.56,-47.15
222.8,-32.56,-46.93
222.9,-32.56,-46.93
223,-32.56,-46.93
223.1,-32.56,-46.93
223.2,-32.56,-46.93
223.3,-32.79,-46.93
223.4,-32.79,-46.93
223.5,-32.79,-46.93
223.6,-32.79,-47.29
223.7,-32.79,-47.29
223.8,-32.79,-47.29
223.9,-32.79,-47.29
224,-32.79,-47.29
224.1,-32.79,-47.29
224.2,-32.79,-47.29
224.3,-32.79,-47.29
224.4,-32.79,-47.29
224.5,-32.79,-47.29
224.6,-32.79,-47.46
224.7,-32.79,-46.88
224.8,-32.79,-46.88
224.9,-32.79,-46.88
225,-32.79,-46.88
225.1,-32.65,-46.88
225.2,-32.65,-46.88
225.3,-32.65,-46.88
225.4,-32.65,-46.88
225.5,-32.65,-46.88
225.6,-32.65,-46.88
225.7,-32.65,-46.88
225.8,-32.65,-46.88
225.9,-32.65,-46.88
226,-32.65,-46.88
226.1,-32.37,-46.88
226.2,-32.37,-46.88
226.3,-32.37,-46.88
226.4,-32.37,-46.88
226.5,-32.37,-46.88
226.6,-32.37,-46.21
226.7,-32.37,-46.46
226.8,-32.37,-46.46
226.9,-32.37,-46.46
227,-32.37,-46.46
227.1,-32.37,-46.46
227.2,-32.37,-46.46
227.3,-32.37,-46.46
227.4,-32.15,-46.46
227.5,-32.15,-46.46
227.6,-32.15,-46.46
227.7,-32.15,-46.46
227.8,-32.15,-46.46
227.9,-32.15,-46.46
228,-32.15,-46.46
228.1,-32.15,-46.46
228.2,-32.15,-46.46
228.3,-32.15,-46.46
228.4,-32.15,-46.46
228.5,-32.15,-46.46
228.6,-32.15,-46.24
228.7,-32.15,-46.24
228.8,-32.15,-46.24
228.9,-32.15,-46.24
229,-32.07,-46.24
229.1,-32.07,-46.24
229.2,-32.07,-46.24
229.3,-32.07,-46.24
229.4,-32.07,-46.24
229.5,-32.07,-46.24
229.6,-32.07,-46.37
229.7,-32.07,-46.37
229.8,-32.07,-46.37
229.9,-32.07,-46.37
230,-32.07,-46.37
230.1,-32.07,-46.37
230.2,-31.95,-46.37
230.3,-31.95,-46.38
230.4,-31.95,-46.38
230.5,-31.95,-46.38
230.6,-31.95,-46.38
230.7,-31.95,-46.38
230.8,-31.95,-46.07
230.9,-31.95,-46.07
231,-31.95,-46.07
231.1,-31.95,-46.07
231.2,-31.54,-46.07
231.3,-31.54,-46.07
231.4,-31.54,-46.07
231.5,-31.54,-46.07
231.6,-31.54,-46.08
231.7,-31.54,-46.08
231.8,-31.54,-46.08
231.9,-31.54,-46.08
232,-31.54,-46.08
232.1,-31.54,-46.08
232.2,-31.54,-46.08
232.3,-31.54,-46.08
232.4,-31.54,-46.08
232.5,-31.12,-46.08
232.6,-31.12,-46.13
232.7,-31.12,-46.13
232.8,-31.12,-46.13
232.9,-31.12,-46.13
233,-31.12,-46.13
233.1,-31.12,-46.13
233.2,-31.12,-45.71
233.3,-31.12,-45.71
233.4,-31.12,-45.71
233.5,-31.12,-45.71
233.6,-31.12,-45.71
233.7,-31.12,-45.71
233.8,-31.12,-45.71
233.9,-31.12,-45.71
234,-31.12,-45.71
234.1,-31.12,-45.37
234.2,-31.12,-45.37
234.3,-30.74,-45.37
234.4,-30.74,-45.37
234.5,-30.74,-45.37
234.6,-30.74,-45.37
234.7,-30.74,-45.93
234.8,-30.74,-45.93
234.9,-30.74,-45.93
235,-30.74,-45.93
235.1,-30.74,-45.93
235.2,-30.74,-45.93
235.3,-30.74,-45.93
235.4,-30.74,-45.93
235.5,-30.53,-45.93
235.6,-30.53,-45.57
235.7,-30.53,-45.57
235.8,-30.53,-45.57
235.9,-30.53,-45.57
236,-30.53,-45.57
236.1,-30.53,-45.57
236.2,-30.53,-45.57
236.3,-30.53,-45.57
236.4,-30.53,-45.57
236.5,-30.53,-45.1
236.6,-30.53,-45.1
236.7,-30.29,-45.1
236.8,-30.29,-45.1
236.9,-30.29,-45.1
237,-30.29,-45.1
237.1,-30.29,-45.1
237.2,-30.29,-45.1
237.3,-30.29,-45.1
237.4,-30.29,-45.49
237.5,-30.29,-45.49
237.6,-30.29,-45.49
237.7,-30.29,-45.49
237.8,-30.29,-45.49
237.9,-30.29,-46.05
238,-30.29,-46.05
238.1,-30.29,-46.05
238.2,-29.82,-46.05
238.3,-29.82,-46.05
238.4,-29.82,-46.05
238.5,-29.82,-46.05
238.6,-29.82,-45.82
238.7,-29.82,-45.82
238.8,-29.82,-45.82
238.9,-29.82,-45.82
239,-29.82,-45.82
239.1,-29.82,-45.82
239.2,-29.82,-45.82
239.3,-29.6,-45.82
239.4,-29.6,-45.82
239.5,-29.6,-45.82
239.6,-29.6,-45.82
239.7,-29.6,-46.12
239.8,-29.6,-46.12
239.9,-29.6,-46.12
240,-29.6,-46.12
240.1,-29.6,-46.12
240.2,-29.6,-46.12
240.3,-29.6,-46.12
240.4,-29.6,-46.12
240.5,-29.29,-46.12
240.6,-29.29,-45.79
240.7,-29.29,-45.79
240.8,-29.29,-45.79
240.9,-29.29,-45.79
241,-29.29,-45.79
241.1,-29.29,-45.79
241.2,-29.29,-45.79
241.3,-29.29,-45.79
241.4,-29.29,-45.79
241.5,-29.29,-45.79
241.6,-29.29,-45.2
241.7,-28.93,-45.2
241.8,-28.93,-45.2
241.9,-28.93,-45.2
242,-28.93,-45.2
242.1,-28.93,-45.2
242.2,-28.93,-44.9
242.3,-28.93,-44.9
242.4,-28.93,-44.9
242.5,-28.93,-44.9
242.6,-28.93,-44.99
242.7,-28.93,-44.99
242.8,-28.93,-44.99
242.9,-28.93,-44.99
243,-28.93,-44.99
243.1,-28.93,-44.99
243.2,-28.63,-44.99
243.3,-28.63,-44.99
243.4,-28.63,-44.99
243.5,-28.63,-44.99
243.6,-28.63,-44.99
243.7,-28.63,-44.99
243.8,-28.63,-44.99
243.9,-28.63,-44.99
244,-28.63,-44.99
244.1,-28.63,-44.99
244.2,-28.63,-44.99
244.3,-28.63,-44.99
244.4,-27.9,-44.79
244.5,-27.9,-44.79
244.6,-27.9,-44.79
244.7,-27.9,-44.79
244.8,-27.9,-44.79
244.9,-27.9,-44.76
245,-27.9,-44.76
245.1,-27.9,-44.76
245.2,-27.9,-44.76
245.3,-27.9,-44.76
245.4,-27.74,-44.76
245.5,-27.74,-44.76
245.6,-27.74,-44.76
245.7,-27.74,-44.65
245.8,-27.74,-44.65
245.9,-27.74,-44.65
246,-27.74,-44.65
246.1,-27.74,-44.65
246.2,-27.74,-44.65
246.3,-27.74,-44.65
246.4,-27.74,-44.65
246.5,-27.74,-44.65
246.6,-27.74,-44.34
246.7,-27.39,-44.34
246.8,-27.39,-43.93
246.9,-27.39,-43.93
247,-27.39,-43.93
247.1,-27.39,-43.93
247.2,-27.39,-43.93
247.3,-27.39,-43.93
247.4,-27.39,-43.93
247.5,-27.39,-43.93
247.6,-27.39,-43.93
247.7,-27.39,-43.93
247.8,-27.39,-43.93
247.9,-27.39,-43.93
248,-27.39,-43.93
248.1,-27.39,-43.93
248.2,-27.39,-43.93
248.3,-27.39,-43.93
248.4,-27.39,-43.93
248.5,-27.39,-43.93
248.6,-27.39,-44.43
248.7,-27.39,-44.43
248.8,-27.39,-44.43
248.9,-27.39,-44.43
249,-27.39,-44.43
249.1,-27.39,-44.43
249.2,-27.39,-44.43
249.3,-27.39,-44.43
249.4,-27.39,-44.43
249.5,-26.78,-44.11
249.6,-26.78,-44.11
249.7,-26.78,-44.11
249.8,-26.78,-44.11
249.9,-26.78,-44.11
250,-26.78,-44.11
250.1,-26.78,-44.49
250.2,-26.78,-44.49
250.3,-26.78,-44.49
250.4,-26.4,-44.49
250.5,-26.4,-44.49
250.6,-26.4,-44.07
250.7,-26.4,-44.07
250.8,-26.4,-44.07
250.9,-26.4,-44.07
251,-26.4,-44.07
251.1,-26.4,-44.07
251.2,-26.4,-44.07
251.3,-26.4,-44.07
251.4,-26.4,-44.07
251.5,-25.83,-44.07
251.6,-25.83,-44.07
251.7,-25.83,-44.07
251.8,-25.83,-44.04
251.9,-25.83,-44.04
252,-25.83,-44.04
252.1,-25.83,-44.04
252.2,-25.83,-44.04
252.3,-25.83,-44.04
252.4,-25.83,-44.04
252.5,-25.57,-44.04
252.6,-25.57,-43.76
252.7,-25.57,-43.76
252.8,-25.57,-43.76
252.9,-25.57,-43.76
253,-25.57,-43.76
253.1,-25.57,-43.76
253.2,-25.57,-43.76
253.3,-25.57,-43.76
253.4,-25.57,-43.76
253.5,-25.57,-43.76
253.6,-25.57,-43.82
253.7,-25.57,-43.82
253.8,-25.57,-43.82
253.9,-25.57,-43.82
254,-25.24,-43.82
254.1,-25.24,-43.82
254.2,-25.24,-43.82
254.3,-25.24,-43.82
254.4,-25.24,-43.82
254.5,-25.24,-44.06
254.6,-25.24,-44.06
254.7,-25.24,-44.06
254.8,-25.24,-44.06
254.9,-25.24,-44.06
255,-25.24,-43.85
255.1,-25.24,-43.85
255.2,-25.24,-43.85
255.3,-25.24,-43.85
255.4,-25.24,-43.85
255.5,-24.6,-43.85
255.6,-24.6,-43.85
255.7,-24.6,-43.68
255.8,-24.6,-43.68
255.9,-24.6,-43.68
256,-24.6,-43.68
256.1,-24.6,-43.68
256.2,-24.6,-43.68
256.3,-24.6,-43.68
256.4,-24.6,-43.68
256.5,-24.18,-43.68
256.6,-24.18,-43.68
256.7,-24.18,-43.71
256.8,-24.18,-43.71
256.9,-24.18,-43.71
257,-24.18,-43.71
257.1,-24.18,-43.71
257.2,-24.18,-43.71
257.3,-24.18,-43.71
257.4,-24.18,-43.71
257.5,-24.18,-43.71
257.6,-23.65,-44.11
257.7,-23.65,-44.11
257.8,-23.65,-44.11
257.9,-23.65,-44.11
258,-23.65,-44.11
258.1,-23.65,-44.11
258.2,-23.65,-43.9
258.3,-23.65,-43.9
258.4,-23.65,-43.9
258.5,-23.65,-43.9
258.6,-23.65,-43.9
258.7,-23.65,-43.9
258.8,-23.65,-43.73
258.9,-23.65,-43.73
259,-23.65,-43.73
259.1,-23.37,-43.73
259.2,-23.37,-43.73
259.3,-23.37,-43.73
259.4,-23.37,-43.73
259.5,-23.37,-43.73
259.6,-23.37,-43.73
259.7,-23.37,-43.84
259.8,-23.37,-43.84
259.9,-23.37,-43.84
260,-23.37,-43.84
260.1,-23.37,-43.84
260.2,-23.37,-43.84
260.3,-23.37,-43.84
260.4,-23.37,-43.84
260.5,-23.37,-43.84
260.6,-23.37,-43.82
260.7,-23.37,-43.82
260.8,-23.37,-43.82
260.9,-23.37,-43.82
261,-23.37,-43.82
261.1,-23.37,-43.82
261.2,-23.37,-43.82
261.3,-23.37,-44.01
261.4,-23.37,-44.01
261.5,-22.77,-44.01
261.6,-22.77,-44.01
261.7,-22.77,-44.01
261.8,-22.77,-44.01
261.9,-22.77,-43.85
262,-22.77,-43.85
262.1,-22.77,-43.85
262.2,-22.77,-43.85
262.3,-22.77,-43.85
262.4,-22.77,-43.85
262.5,-22.77,-43.85
262.6,-22.01,-43.85
262.7,-22.01,-43.29
262.8,-22.01,-43.29
262.9,-22.01,-43.29
263,-22.01,-43.29
263.1,-22.01,-43.29
263.2,-22.01,-43.29
263.3,-22.01,-43.29
263.4,-22.01,-43.29
263.5,-22.01,-43.29
263.6,-21.67,-43.29
263.7,-21.67,-43.18
263.8,-21.67,-43.18
263.9,-21.67,-43.18
264,-21.67,-43.18
264.1,-21.67,-43.18
264.2,-21.67,-43.18
264.3,-21.67,-43.18
264.4,-21.67,-43.18
264.5,-21.67,-43.18
264.6,-21.67,-43.18
264.7,-21.25,-43.18
264.8,-21.25,-43.18
264.9,-21.25,-43.18
265,-21.25,-43.18
265.1,-21.25,-43.18
265.2,-21.25,-43.18
265.3,-21.25,-43.18
265.4,-21.25,-43.18
265.5,-21.25,-43.18
265.6,-21.25,-43.68
265.7,-21.25,-43.68
265.8,-21.25,-43.68
265.9,-21.25,-43.68
266,-21.25,-43.68
266.1,-21.25,-43.68
266.2,-20.87,-43.68
266.3,-20.87,-43.65
266.4,-20.87,-43.65
266.5,-20.87,-43.65
266.6,-20.87,-43.65
266.7,-20.87,-43.65
266.8,-20.87,-43.66
266.9,-20.87,-43.66
267,-20.87,-43.66
267.1,-20.87,-43.66
267.2,-20.87,-43.66
267.3,-20.87,-43.66
267.4,-20.87,-43.66
267.5,-20.29,-43.66
267.6,-20.29,-43.66
267.7,-20.29,-43.6
267.8,-20.29,-43.6
267.9,-20.29,-43.6
268,-20.29,-43.6
268.1,-20.29,-43.6
268.2,-20.29,-43.6
268.3,-20.29,-43.6
268.4,-20.29,-43.6
268.5,-20.29,-43.62
268.6,-19.79,-43.62
268.7,-19.79,-43.62
268.8,-19.79,-43.62
268.9,-19.79,-43.62
269,-19.79,-43.62
269.1,-19.79,-43.62
269.2,-19.79,-43.62
269.3,-19.79,-43.62
269.4,-19.79,-43.62
269.5,-19.79,-43.62
269.6,-19.79,-43.62
269.7,-19.46,-43.62
269.8,-19.46,-43.62
269.9,-19.46,-43.65
270,-19.46,-43.65
270.1,-19.46,-43.65
270.2,-19.46,-43.65
270.3,-19.46,-43.65
270.4,-19.46,-43.65
270.5,-19.46,-43.65
270.6,-19.46,-43.65
270.7,-19.46,-43.65
270.8,-19.46,-43.41
270.9,-19.46,-43.41
271,-19.46,-43.41
271.1,-19.07,-43.41
271.2,-19.07,-43.41
271.3,-19.07,-43.41
271.4,-19.07,-43.18
271.5,-19.07,-43.18
271.6,-19.07,-43.18
271.7,-19.07,-43.18
271.8,-19.07,-43.18
271.9,-19.07,-43.18
272,-19.07,-43.18
272.1,-19.07,-43.18
272.2,-19.07,-43.18
272.3,-19.07,-43.18
272.4,-19.07,-43.18
272.5,-19.07,-43.18
272.6,-19.07,-43.18
272.7,-19.07,-43.18
272.8,-19.07,-43.18
272.9,-19.07,-43.18
273,-19.07,-43.18
273.1,-19.07,-43.18
273.2,-19.07,-43.18
273.3,-19.07,-43.39
273.4,-19.07,-43.39
273.5,-19.07,-43.39
273.6,-19.07,-43.39
273.7,-18.31,-43.39
273.8,-18.31,-43.39
273.9,-18.31,-43.39
274,-18.31,-43.73
274.1,-18.31,-43.73
274.2,-18.31,-43.73
274.3,-18.31,-43.73
274.4,-18.31,-43.73
274.5,-18.31,-43.73
274.6,-18.31,-43.73
274.7,-17.82,-43.12
274.8,-17.82,-43.12
274.9,-17.82,-43.12
275,-17.82,-43.12
275.1,-17.82,-43.12
275.2,-17.82,-43.12
275.3,-17.82,-43.12
275.4,-17.82,-43.12
275.5,-17.82,-43.12
275.6,-17.82,-43.12
275.7,-17.36,-43.12
275.8,-17.36,-43.37
275.9,-17.36,-43.37
276,-17.36,-43.37
276.1,-17.36,-43.37
276.2,-17.36,-43.37
276.3,-17.36,-43.37
276.4,-17.36,-43.37
276.5,-17.36,-42.87
276.6,-17.36,-42.87
276.7,-17.36,-42.87
276.8,-17.36,-42.87
276.9,-17.36,-42.87
277,-16.97,-42.87
277.1,-16.97,-42.87
277.2,-16.97,-42.87
277.3,-16.97,-42.87
277.4,-16.97,-42.87
277.5,-16.97,-42.87
277.6,-16.97,-42.83
277.7,-16.97,-42.83
277.8,-16.97,-42.83
277.9,-16.97,-42.83
278,-16.97,-42.83
278.1,-16.97,-42.57
278.2,-16.54,-42.57
278.3,-16.54,-42.57
278.4,-16.54,-42.57
278.5,-16.54,-42.57
278.6,-16.54,-42.57
278.7,-16.54,-42.57
278.8,-16.54,-42.57
278.9,-16.54,-42.57
279,-16.54,-42.6
279.1,-16.54,-42.6
279.2,-16.54,-42.6
279.3,-16.54,-42.6
279.4,-16.54,-42.6
279.5,-16.54,-42.6
279.6,-16.54,-42.6
279.7,-16.54,-42.6
279.8,-16.54,-42.6
279.9,-16.1,-42.6
280,-16.1,-42.6
280.1,-16.1,-42.29
280.2,-16.1,-42.29
280.3,-16.1,-42.29
280.4,-16.1,-42.29
280.5,-16.1,-42.29
280.6,-16.1,-42.29
280.7,-16.1,-42.43
280.8,-16.1,-41.93
280.9,-15.84,-41.93
281,-15.84,-41.93
281.1,-15.84,-41.93
281.2,-15.84,-41.93
281.3,-15.84,-41.93
281.4,-15.84,-41.93
281.5,-15.84,-41.93
281.6,-15.84,-41.93
281.7,-15.84,-41.93
281.8,-15.84,-41.93
281.9,-15.84,-41.93
282,-15.52,-41.93
282.1,-15.52,-41.93
282.2,-15.52,-41.93
282.3,-15.52,-41.93
282.4,-15.52,-41.93
282.5,-15.52,-41.93
282.6,-15.52,-41.9
282.7,-15.52,-41.9
282.8,-15.52,-41.9
282.9,-15.52,-41.9
283,-15.52,-41.9
283.1,-15.52,-41.9
283.2,-15.52,-41.68
283.3,-15.52,-41.68
283.4,-14.99,-41.68
283.5,-14.99,-41.68
283.6,-14.99,-41.68
283.7,-14.99,-41.68
283.8,-14.99,-41.65
283.9,-14.99,-41.65
284,-14.99,-41.65
284.1,-14.99,-41.65
284.2,-14.99,-41.65
284.3,-14.99,-41.65
284.4,-14.99,-41.65
284.5,-14.99,-41.65
284.6,-14.99,-41.65
284.7,-14.63,-41.65
284.8,-14.63,-41.33
284.9,-14.63,-41.33
285,-14.63,-41.33
285.1,-14.63,-41.33
285.2,-14.63,-41.33
285.3,-14.63,-41.33
285.4,-14.63,-41.33
285.5,-14.63,-40.98
285.6,-14.63,-40.98
285.7,-14.63,-40.98
285.8,-14.24,-40.98
285.9,-14.24,-40.98
286,-14.24,-41.01
286.1,-14.24,-41.01
286.2,-14.24,-41.01
286.3,-14.24,-41.01
286.4,-14.24,-41.01
286.5,-14.24,-41.01
286.6,-14.24,-41.01
286.7,-14.24,-41.01
286.8,-14.24,-40.65
286.9,-14.24,-40.65
287,-14.24,-40.65
287.1,-14.24,-40.65
287.2,-14.24,-40.65
287.3,-14.24,-40.65
287.4,-14.24,-40.65
287.5,-14.24,-40.65
287.6,-14.24,-40.65
287.7,-14.24,-40.65
287.8,-14.24,-40.46
287.9,-14.24,-40.46
288,-14.24,-40.46
288.1,-14.24,-40.46
288.2,-14.24,-40.46
288.3,-14.24,-40.46
288.4,-14.24,-40.46
288.5,-13.61,-40.46
288.6,-13.61,-40.32
288.7,-13.61,-40.32
288.8,-13.61,-39.9
288.9,-13.61,-39.9
289,-13.61,-39.9
289.1,-13.61,-39.9
289.2,-13.12,-39.9
289.3,-13.12,-39.9
289.4,-13.12,-39.9
289.5,-13.12,-39.9
289.6,-13.12,-39.9
289.7,-13.12,-39.9
289.8,-13.12,-39.9
289.9,-13.12,-39.9
290,-13.12,-39.9
290.1,-13.12,-39.9
290.2,-13.12,-39.9
290.3,-13.12,-39.9
290.4,-13.12,-39.9
290.5,-13.12,-39.9
290.6,-12.77,-39.9
290.7,-12.77,-39.9
290.8,-12.77,-39.9
290.9,-12.77,-39.74
291,-12.77,-39.74
291.1,-12.77,-39.74
291.2,-12.77,-39.74
291.3,-12.77,-39.74
291.4,-12.77,-39.74
291.5,-12.77,-39.74
291.6,-12.77,-39.74
291.7,-12.77,-39.74
291.8,-12.45,-39.56
291.9,-12.45,-39.56
292,-12.45,-39.56
292.1,-12.45,-39.56
292.2,-12.45,-39.56
292.3,-12.45,-39.56
292.4,-12.45,-39.56
292.5,-12.45,-39.56
292.6,-12.45,-39.56
292.7,-12.45,-39.56
292.8,-12.45,-39.06
292.9,-12.45,-39.06
293,-12.45,-39.06
293.1,-12.1,-39.06
293.2,-12.1,-39.06
293.3,-12.1,-39.06
293.4,-12.1,-39.06
293.5,-12.1,-39.07
293.6,-12.1,-39.07
293.7,-12.1,-39.07
293.8,-12.1,-38.85
293.9,-12.1,-38.85
294,-12.1,-38.85
294.1,-12.1,-38.85
294.2,-12.1,-38.85
294.3,-12.1,-38.85
294.4,-12.1,-38.85
294.5,-12.1,-38.85
294.6,-12.1,-38.85
294.7,-11.85,-38.85
294.8,-11.85,-38.28
294.9,-11.85,-38.28
295,-11.85,-38.28
295.1,-11.85,-38.28
295.2,-11.85,-38.28
295.3,-11.85,-38.28
295.4,-11.85,-38.28
295.5,-11.85,-38.28
295.6,-11.85,-38.28
295.7,-11.85,-37.78
295.8,-11.85,-37.78
295.9,-11.85,-37.78
296,-11.85,-37.78
296.1,-11.85,-37.78
296.2,-11.85,-37.78
296.3,-11.85,-37.78
296.4,-11.85,-37.74
296.5,-11.85,-37.74
296.6,-11.85,-37.74
296.7,-11.21,-37.74
296.8,-11.21,-37.74
296.9,-11.21,-37.74
297,-11.21,-37.51
297.1,-11.21,-37.51
297.2,-11.21,-37.51
297.3,-11.21,-37.51
297.4,-11.21,-37.51
297.5,-11.21,-37.51
297.6,-11.21,-37.07
297.7,-11.21,-37.07
297.8,-10.79,-37.07
297.9,-10.79,-37.07
298,-10.79,-37.07
298.1,-10.79,-37.07
298.2,-10.79,-37.07
298.3,-10.79,-37.07
298.4,-10.79,-37.07
298.5,-10.79,-37.07
298.6,-10.79,-37.07
298.7,-10.79,-37.07
298.8,-10.79,-36.79
298.9,-10.79,-36.79
299,-10.79,-36.79
299.1,-10.79,-36.79
299.2,-10.79,-36.79
299.3,-10.79,-36.79
299.4,-10.79,-36.79
299.5,-10.79,-36.79
299.6,-10.79,-36.79
299.7,-10.79,-36.79
299.8,-10.79,-36.54
299.9,-10.79,-36.54
300,-10.79,-36.54
300.1,-10.79,-36.54
300.2,-10.79,-36.54
300.3,-10.79,-36.54
300.4,-10.79,-36.54
300.5,-10.29,-36.54
300.6,-10.29,-36.32
300.7,-10.29,-36.32
300.8,-10.29,-36.32
300.9,-10.29,-36.32
301,-10.29,-36.32
301.1,-10.29,-36.32
301.2,-10.29,-35.99
301.3,-9.97,-35.99
301.4,-9.97,-35.99
301.5,-9.97,-35.99
301.6,-9.97,-35.49
301.7,-9.97,-35.49
301.8,-9.97,-35.49
301.9,-9.97,-35.49
302,-9.97,-35.49
302.1,-9.97,-35.49
302.2,-9.97,-35.49
302.3,-9.97,-35.49
302.4,-9.97,-35.49
302.5,-9.97,-35.49
302.6,-9.97,-35.49
302.7,-9.97,-35.49
302.8,-9.7,-35.49
302.9,-9.7,-35.49
303,-9.7,-35.27
303.1,-9.7,-35.27
303.2,-9.7,-35.27
303.3,-9.7,-35.27
303.4,-9.7,-35.27
303.5,-9.7,-35.27
303.6,-9.7,-35.27
303.7,-9.7,-35.27
303.8,-9.7,-35.27
303.9,-9.17,-34.94
304,-9.17,-34.94
304.1,-9.17,-34.94
304.2,-9.17,-34.94
304.3,-9.17,-34.94
304.4,-9.17,-34.94
304.5,-9.17,-34.94
304.6,-9.17,-34.94
304.7,-9.17,-34.94
304.8,-9.17,-34.51
304.9,-9.17,-34.51
305,-9.17,-34.51
305.1,-9.17,-34.51
305.2,-9.17,-34.51
305.3,-9.17,-34.51
305.4,-9.17,-34.51
305.5,-8.89,-34.51
305.6,-8.89,-34.57
305.7,-8.89,-34.57
305.8,-8.89,-34.57
305.9,-8.89,-34.24
306,-8.89,-34.24
306.1,-8.89,-34.24
306.2,-8.89,-34.24
306.3,-8.89,-34.24
306.4,-8.89,-34.24
306.5,-8.89,-33.93
306.6,-8.89,-33.93
306.7,-8.89,-33.93
306.8,-8.89,-33.93
306.9,-8.43,-33.93
307,-8.43,-33.93
307.1,-8.43,-33.93
307.2,-8.43,-33.93
307.3,-8.43,-33.93
307.4,-8.43,-33.93
307.5,-8.43,-33.93
307.6,-8.43,-33.93
307.7,-8.43,-33.93
307.8,-8.43,-33.93
307.9,-8.43,-33.68
308,-8.07,-33.68
308.1,-8.07,-33.68
308.2,-8.07,-33.68
308.3,-8.07,-33.68
308.4,-8.07,-33.68
308.5,-8.07,-33.68
308.6,-8.07,-33.68
308.7,-8.07,-33.68
308.8,-8.07,-33.68
308.9,-8.07,-33.32
309,-7.81,-33.32
309.1,-7.81,-33.32
309.2,-7.81,-33.32
309.3,-7.81,-33.32
309.4,-7.81,-33.32
309.5,-7.81,-33.32
309.6,-7.81,-33.11
309.7,-7.81,-33.11
309.8,-7.81,-33.11
309.9,-7.81,-33.11
310,-7.81,-33.11
310.1,-7.81,-33.18
310.2,-7.81,-33.18
310.3,-7.81,-33.18
310.4,-7.81,-33.18
310.5,-7.51,-33.18
310.6,-7.51,-33.18
310.7,-7.51,-33.18
310.8,-7.51,-33.18
310.9,-7.51,-32.74
311,-7.51,-32.74
311.1,-7.51,-32.74
311.2,-7.51,-32.74
311.3,-7.51,-32.74
311.4,-7.51,-32.74
311.5,-7.51,-32.74
311.6,-7.51,-32.74
311.7,-7.51,-32.74
311.8,-7.51,-32.74
311.9,-7.51,-32.32
312,-7.2,-32.32
312.1,-7.2,-32.32
312.2,-7.2,-32.32
312.3,-7.2,-32.32
312.4,-7.2,-32.32
312.5,-7.2,-32.32
312.6,-7.2,-32.32
312.7,-7.2,-32.29
312.8,-7.2,-32.29
312.9,-7.2,-32.29
313,-6.79,-32.29
313.1,-6.79,-32.29
313.2,-6.79,-32.29
313.3,-6.79,-31.83
313.4,-6.79,-31.83
313.5,-6.79,-31.83
313.6,-6.79,-31.83
313.7,-6.79,-31.83
313.8,-6.79,-31.83
313.9,-6.79,-31.85
314,-6.79,-31.85
314.1,-6.48,-31.85
314.2,-6.48,-31.85
314.3,-6.48,-31.85
314.4,-6.48,-31.85
314.5,-6.48,-31.46
314.6,-6.48,-31.46
314.7,-6.48,-31.46
314.8,-6.48,-31.46
314.9,-6.48,-31.46
315,-6.48,-31.46
315.1,-6.48,-31.46
315.2,-6.48,-31.46
315.3,-6.48,-31.46
315.4,-6.48,-31.46
315.5,-6.18,-31.46
315.6,-6.18,-31.46
315.7,-6.18,-31.46
315.8,-6.18,-31.46
315.9,-6.18,-31.16
316,-6.18,-31.16
316.1,-6.18,-31.16
316.2,-6.18,-31.16
316.3,-6.18,-31.16
316.4,-6.18,-31.16
316.5,-6.18,-31.16
316.6,-6.18,-31.16
316.7,-6.18,-31.16
316.8,-6.18,-31.16
316.9,-6.18,-30.92
317,-5.74,-30.92
317.1,-5.74,-30.92
317.2,-5.74,-30.92
317.3,-5.74,-30.92
317.4,-5.74,-30.92
317.5,-5.74,-30.86
317.6,-5.74,-30.86
317.7,-5.74,-30.86
317.8,-5.74,-30.86
317.9,-5.74,-30.86
318,-5.74,-30.53
318.1,-5.43,-30.53
318.2,-5.43,-30.53
318.3,-5.43,-30.53
318.4,-5.43,-30.53
318.5,-5.43,-30.53
318.6,-5.43,-30.53
318.7,-5.43,-30.53
318.8,-5.43,-30.53
318.9,-5.43,-30.53
319,-5.43,-30.28
319.1,-5.43,-30.28
319.2,-5.17,-30.21
319.3,-5.17,-30.21
319.4,-5.17,-30.21
319.5,-5.17,-30.21
319.6,-5.17,-30.21
319.7,-5.17,-30.21
319.8,-5.17,-30.21
319.9,-5.17,-30.21
320,-5.17,-30.21
320.1,-5.17,-30.21
320.2,-5.17,-30.21
320.3,-5.17,-30.21
320.4,-5.17,-30.21
320.5,-5.17,-30.21
320.6,-5.17,-30.21
320.7,-5.17,-30.21
320.8,-5.17,-30.21
320.9,-5.17,-30.21
321,-5.17,-29.95
321.1,-5.17,-29.95
321.2,-5.17,-29.95
321.3,-5.17,-29.95
321.4,-5.17,-29.95
321.5,-5.17,-29.95
321.6,-5.17,-29.95
321.7,-5.17,-29.71
321.8,-5.17,-29.71
321.9,-4.6,-29.71
322,-4.6,-29.71
322.1,-4.6,-29.71
322.2,-4.6,-29.6
322.3,-4.6,-29.6
322.4,-4.6,-29.6
322.5,-4.6,-29.6
322.6,-4.6,-29.6
322.7,-4.6,-29.6
322.8,-4.12,-29.6
322.9,-4.12,-29.6
323,-4.12,-29.36
323.1,-4.12,-29.36
323.2,-4.12,-29.36
323.3,-4.12,-29.36
323.4,-4.12,-29.36
323.5,-4.12,-29.36
323.6,-4.12,-29.36
323.7,-4.12,-29.36
323.8,-4.12,-29.36
323.9,-4.12,-29.36
324,-4.12,-29.31
324.1,-3.85,-29.31
324.2,-3.85,-29.31
324.3,-3.85,-29.31
324.4,-3.85,-29.31
324.5,-3.85,-29.31
324.6,-3.85,-29.31
324.7,-3.85,-29.08
324.8,-3.85,-29.08
324.9,-3.85,-29.08
325,-3.85,-29.08
325.1,-3.85,-29.08
325.2,-3.63,-29.08
325.3,-3.63,-29.08
325.4,-3.63,-29.08
325.5,-3.63,-29.08
325.6,-3.63,-29.07
325.7,-3.63,-29.07
325.8,-3.63,-29.07
325.9,-3.63,-29.07
326,-3.63,-28.81
326.1,-3.63,-28.81
326.2,-3.63,-28.81
326.3,-3.34,-28.81
326.4,-3.34,-28.81
326.5,-3.34,-28.81
326.6,-3.34,-28.81
326.7,-3.34,-28.81
326.8,-3.34,-28.81
326.9,-3.34,-28.81
327,-3.34,-28.75
327.1,-3.34,-28.5
327.2,-3.34,-28.5
327.3,-3.34,-28.5
327.4,-3.34,-28.5
327.5,-3.34,-28.5
327.6,-3.34,-28.5
327.7,-3.34,-28.5
327.8,-3.34,-28.5
327.9,-3.34,-28.5
328,-3.34,-28.5
328.1,-3.34,-28.5
328.2,-3.34,-28.5
328.3,-3.34,-28.5
328.4,-3.34,-28.5
328.5,-3.34,-28.5
328.6,-3.34,-28.5
328.7,-3.34,-28.5
328.8,-3.34,-28.5
328.9,-3.34,-28.5
329,-3.34,-28.48
329.1,-3.34,-28.48
329.2,-2.85,-28.3
329.3,-2.85,-28.3
329.4,-2.85,-28.3
329.5,-2.85,-28.3
329.6,-2.85,-28.3
329.7,-2.85,-28.3
329.8,-2.85,-28.3
329.9,-2.85,-28.3
330,-2.85,-28.23
330.1,-2.85,-28.23
330.2,-2.49,-28.23
330.3,-2.49,-28.23
330.4,-2.49,-28.23
330.5,-2.49,-28.23
330.6,-2.49,-28.23
330.7,-2.49,-28.23
330.8,-2.49,-28.23
330.9,-2.49,-28.23
331,-2.49,-28.03
331.1,-2.49,-28.03
331.2,-2.24,-28.03
331.3,-2.24,-28.03
331.4,-2.24,-28.03
331.5,-2.24,-28.03
331.6,-2.24,-28.03
331.7,-2.24,-27.99
331.8,-2.24,-27.99
331.9,-2.24,-27.99
332,-2.24,-27.99
332.1,-2.24,-27.93
332.2,-2.24,-27.93
332.3,-2.24,-27.93
332.4,-2.24,-27.93
332.5,-2.24,-27.93
332.6,-2,-27.93
332.7,-2,-27.93
332.8,-2,-27.93
332.9,-2,-27.93
333,-2,-27.93
333.1,-2,-27.93
333.2,-2,-27.93
333.3,-2,-27.93
333.4,-2,-27.93
333.5,-2,-27.78
333.6,-2,-27.78
333.7,-2,-27.78
333.8,-2,-27.78
333.9,-2,-27.78
334,-2,-27.78
334.1,-2,-27.78
334.2,-1.71,-27.79
334.3,-1.71,-27.79
334.4,-1.71,-27.79
334.5,-1.71,-27.79
334.6,-1.71,-27.79
334.7,-1.71,-27.79
334.8,-1.71,-27.79
334.9,-1.71,-27.79
335,-1.71,-27.79
335.1,-1.71,-27.59
335.2,-1.62,-27.59
335.3,-1.62,-27.59
335.4,-1.62,-27.59
335.5,-1.62,-27.59
335.6,-1.62,-27.59
335.7,-1.62,-27.59
335.8,-1.62,-27.59
335.9,-1.62,-27.59
336,-1.62,-27.56
336.1,-1.62,-27.56
336.2,-1.62,-27.56
336.3,-1.62,-27.56
336.4,-1.62,-27.56
336.5,-1.37,-27.56
336.6,-1.37,-27.56
336.7,-1.37,-27.56
336.8,-1.37,-27.54
336.9,-1.37,-27.54
337,-1.37,-27.54
337.1,-1.37,-27.54
337.2,-1.37,-27.54
337.3,-1.37,-27.29
337.4,-1.37,-27.29
337.5,-1.37,-27.29
337.6,-1.37,-27.29
337.7,-1.37,-27.29
337.8,-1.37,-27.29
337.9,-1.37,-27.29
338,-1.37,-27.29
338.1,-1.17,-27.28
338.2,-1.17,-27.28
338.3,-1.17,-27.28
338.4,-1.17,-27.28
338.5,-1.17,-27.28
338.6,-1.17,-27.28
338.7,-1.17,-27.28
338.8,-1.17,-27.28
338.9,-1.17,-27.28
339,-1.17,-27.28
339.1,-1.17,-27.26
339.2,-0.9,-27.26
339.3,-0.9,-27.26
339.4,-0.9,-27.26
339.5,-0.9,-27.24
339.6,-0.9,-27.24
339.7,-0.9,-27.24
339.8,-0.9,-27.24
339.9,-0.9,-27.24
340,-0.9,-27.22
340.1,-0.9,-27.22
340.2,-0.9,-27.22
340.3,-0.9,-27.22
340.4,-0.85,-27.22
340.5,-0.85,-27.22
340.6,-0.85,-27.22
340.7,-0.85,-27.22
340.8,-0.85,-27.22
340.9,-0.85,-27.22
341,-0.85,-27.22
341.1,-0.85,-27.22
341.2,-0.85,-27.22
341.3,-0.85,-27.22
341.4,-0.85,-27.21
341.5,-0.85,-27.21
341.6,-0.85,-27.21
341.7,-0.85,-27.21
341.8,-0.85,-27.21
341.9,-0.85,-27.21
342,-0.85,-27.21
342.1,-0.85,-27.18
342.2,-0.85,-27.18
342.3,-0.85,-27.18
342.4,-0.85,-27.18
342.5,-0.85,-27.18
342.6,-0.85,-27.18
342.7,-0.85,-27.18
342.8,-0.85,-27.18
342.9,-0.85,-27.18
343,-0.85,-27.18
343.1,-0.85,-26.98
343.2,-0.57,-26.98
343.3,-0.57,-26.98
343.4,-0.57,-26.98
343.5,-0.57,-26.98
343.6,-0.57,-26.98
343.7,-0.57,-26.98
343.8,-0.57,-26.98
343.9,-0.57,-26.98
344,-0.57,-26.97
344.1,-0.57,-26.97
344.2,-0.51,-26.97
344.3,-0.51,-26.97
344.4,-0.51,-26.97
344.5,-0.51,-26.96
344.6,-0.51,-26.96
344.7,-0.51,-26.96
344.8,-0.51,-26.96
344.9,-0.51,-26.96
345,-0.51,-26.96
345.1,-0.51,-26.96
345.2,-0.33,-26.96
345.3,-0.33,-26.96
345.4,-0.33,-26.96
345.5,-0.33,-26.96
345.6,-0.33,-26.96
345.7,-0.33,-26.96
345.8,-0.33,-26.96
345.9,-0.33,-26.96
346,-0.33,-26.96
346.1,-0.33,-26.96
346.2,-0.33,-26.96
346.3,-0.33,-26.95
346.4,-0.33,-26.95
346.5,-0.33,-26.95
346.6,-0.33,-26.95
346.7,-0.33,-26.95
346.8,-0.33,-26.95
346.9,-0.33,-26.95
347,-0.33,-26.95
347.1,-0.33,-26.96
347.2,-0.33,-26.96
347.3,-0.33,-26.96
347.4,-0.33,-26.96
347.5,-0.33,-26.96
347.6,-0.33,-26.96
347.7,-0.33,-26.96
347.8,-0.33,-26.96
347.9,-0.23,-26.96
348,-0.23,-26.96
348.1,-0.23,-26.96
348.2,-0.23,-26.96
348.3,-0.23,-26.96
348.4,-0.23,-26.96
348.5,-0.23,-26.96
348.6,-0.23,-26.96
348.7,-0.23,-26.96
348.8,-0.23,-26.97
348.9,-0.19,-26.97
349,-0.19,-26.97
349.1,-0.19,-26.97
349.2,-0.19,-26.97
349.3,-0.19,-26.97
349.4,-0.19,-26.97
349.5,-0.19,-26.97
349.6,-0.19,-26.97
349.7,-0.19,-26.97
349.8,-0.19,-26.97
349.9,-0.19,-26.97
350,-0.19,-26.97
350.1,-0.19,-26.97
350.2,-0.19,-26.97
350.3,-0.01,-26.97
350.4,-0.01,-26.97
350.5,-0.01,-26.97
350.6,-0.01,-26.97
350.7,-0.01,-26.97
350.8,-0.01,-26.97
350.9,-0.01,-26.97
351,-0.01,-26.97
351.1,-0.01,-26.98
351.2,-0.01,-26.98
351.3,-0.01,-26.98
351.4,-0.01,-26.98
351.5,-0.01,-26.98
351.6,-0.01,-26.98
351.7,-0.01,-26.98
351.8,-0.01,-26.98
351.9,-0.01,-26.98
352,-0.01,-26.98
352.1,-0.01,-26.98
352.2,-0.01,-26.98
352.3,-0.01,-26.98
352.4,-0.01,-26.98
352.5,-0.01,-26.98
352.6,-0.01,-26.98
352.7,-0.01,-26.98
352.8,-0.01,-26.98
352.9,-0.01,-26.98
353,-0.01,-26.98
353.1,-0.01,-26.99
353.2,-0.01,-26.99
353.3,-0.01,-26.99
353.4,-0.01,-26.99
353.5,-0.01,-26.99
353.6,-0.01,-26.99
353.7,-0.01,-26.99
353.8,-0.01,-26.99
353.9,-0.01,-26.99
354,-0.01,-27.01
354.1,-0.01,-27.01
354.2,-0.01,-27.01
354.3,-0.01,-27.01
354.4,-0.01,-27.01
354.5,-0.01,-27.01
354.6,-0.01,-27.01
354.7,-0.01,-27.01
354.8,-0.01,-27.01
354.9,-0.01,-27.01
355,-0.01,-27.01
355.1,-0.01,-27.01
355.2,-0.01,-27.01
355.3,0,-27.01
355.4,0,-27.01
355.5,0,-27.01
355.6,0,-27.01
355.7,0,-27.01
355.8,0,-27.01
355.9,0,-27.01
356,0,-27.01
356.1,0,-27.02
356.2,0,-27.02
356.3,0,-27.02
356.4,0,-27.02
356.5,0,-27.02
356.6,0,-27.02
356.7,0,-27.02
356.8,0,-27.02
356.9,0,-27.2
357,0,-27.2
357.1,0,-27.2
357.2,0,-27.2
357.3,0,-27.2
357.4,-0.01,-27.2
357.5,-0.01,-27.22
357.6,-0.01,-27.22
357.7,-0.01,-27.22
357.8,-0.01,-27.22
357.9,-0.01,-27.22
358,-0.01,-27.22
358.1,-0.01,-27.24
358.2,-0.01,-27.24
358.3,-0.01,-27.24
358.4,-0.01,-27.24
358.5,-0.01,-27.24
358.6,-0.02,-27.24
358.7,-0.02,-27.24
358.8,-0.02,-27.24
358.9,-0.02,-27.18
359,-0.02,-27.18
359.1,-0.02,-27.18
359.2,-0.02,-27.18
359.3,-0.02,-27.18
359.4,-0.02,-27.18
359.5,-0.02,-27.18
359.6,-0.02,-27.35
359.7,-0.02,-27.35
359.8,-0.02,-27.35
359.9,-0.07,-27.35
